# IC 4553        
# 
# An Atlas of Galaxy Spectral Energy Distributions from the Ultraviolet to the Mid-Infrared
# Brown et al. (2014)
# http://dx.doi.org/10.5072/03/529D3551F0117
# http://dx.doi.org/10.17909/t9-5bxk-dh29
# 
# The Spectral Energy Distributions of Active Galactic Nuclei
# Brown et al. (2019)
# http://dx.doi.org/10.17909/t9-3dbt-8734
# 
# Column 1: Observed wavelength (um)
# Column 2: f_nu (Jy)
# Column 3: f_lam (erg/s/cm2/A)
# Column 4: Source (0 = model, 1 = Optical Spectrun, 2 = Akari, 3 = Spitzer IRS)
# 
    0.010186 5.225773e-17 1.511000e-25 0 
    0.010375 7.746537e-17 2.159000e-25 0 
    0.010593 1.052396e-16 2.813600e-25 0 
    0.010789 1.469271e-16 3.786700e-25 0 
    0.010990 2.070775e-16 5.143500e-25 0 
    0.011194 3.673753e-16 8.795500e-25 0 
    0.011614 6.654326e-16 1.480000e-24 0 
    0.012023 1.117295e-15 2.318800e-24 0 
    0.012331 3.964036e-15 7.821000e-24 0 
    0.012735 6.563433e-15 1.214100e-23 0 
    0.012942 8.320610e-15 1.490300e-23 0 
    0.013032 9.400825e-15 1.660600e-23 0 
    0.013335 1.306579e-14 2.204300e-23 0 
    0.013428 1.567325e-14 2.607700e-23 0 
    0.013646 1.937115e-14 3.120800e-23 0 
    0.013964 2.852102e-14 4.388000e-23 0 
    0.014256 3.856018e-14 5.692000e-23 0 
    0.014555 7.800951e-14 1.104700e-22 0 
    0.014962 1.622249e-13 2.174000e-22 0 
    0.015382 2.318265e-13 2.939400e-22 0 
    0.015776 3.289559e-13 3.965200e-22 0 
    0.016181 4.625396e-13 5.299800e-22 0 
    0.016482 5.904179e-13 6.520200e-22 0 
    0.016904 8.168026e-13 8.575500e-22 0 
    0.017298 1.101831e-12 1.104700e-21 0 
    0.017620 1.380842e-12 1.334300e-21 0 
    0.018030 1.832915e-12 1.691500e-21 0 
    0.018323 2.249742e-12 2.010300e-21 0 
    0.018535 2.583010e-12 2.255600e-21 0 
    0.018923 3.350554e-12 2.807100e-21 0 
    0.019454 4.604195e-12 3.649700e-21 0 
    0.019770 5.561055e-12 4.268400e-21 0 
    0.020137 7.016615e-12 5.191100e-21 0 
    0.020559 8.854143e-12 6.284400e-21 0 
    0.020893 1.052312e-11 7.232100e-21 0 
    0.021380 1.333998e-11 8.755100e-21 0 
    0.021979 1.875625e-11 1.164800e-20 0 
    0.022387 2.296898e-11 1.374900e-20 0 
    0.022699 2.643377e-11 1.539100e-20 0 
    0.023121 3.222274e-11 1.808300e-20 0 
    0.023442 5.347267e-11 2.919200e-20 0 
    0.023823 1.014223e-10 5.361200e-20 0 
    0.024434 1.514004e-10 7.607800e-20 0 
    0.025061 1.782940e-10 8.516500e-20 0 
    0.025645 2.239572e-10 1.021600e-19 0 
    0.026182 2.208740e-10 9.666300e-20 0 
    0.026485 2.774256e-10 1.186500e-19 0 
    0.026853 3.222042e-10 1.340500e-19 0 
    0.027416 3.725113e-10 1.486800e-19 0 
    0.027925 4.257219e-10 1.637800e-19 0 
    0.028379 4.820931e-10 1.795800e-19 0 
    0.028907 5.471884e-10 1.964500e-19 0 
    0.029512 6.069417e-10 2.090600e-19 0 
    0.030130 7.147242e-10 2.361900e-19 0 
    0.030620 7.819142e-10 2.501900e-19 0 
    0.031333 9.250112e-10 2.826600e-19 0 
    0.032359 1.161798e-09 3.328600e-19 0 
    0.033419 1.416214e-09 3.804200e-19 0 
    0.034435 1.694899e-09 4.288100e-19 0 
    0.035400 2.005140e-09 4.800200e-19 0 
    0.036308 2.323496e-09 5.287600e-19 0 
    0.037239 2.686168e-09 5.811100e-19 0 
    0.038194 3.069957e-09 6.313400e-19 0 
    0.039174 3.436639e-09 6.718300e-19 0 
    0.040179 4.028454e-09 7.486200e-19 0 
    0.041210 4.593522e-09 8.114500e-19 0 
    0.042170 5.130362e-09 8.654900e-19 0 
    0.042954 5.599469e-09 9.104600e-19 0 
    0.043752 6.097293e-09 9.555700e-19 0 
    0.044875 6.904531e-09 1.028600e-18 0 
    0.045920 7.623460e-09 1.084600e-18 0 
    0.046881 8.339293e-09 1.138300e-18 0 
    0.047863 9.122995e-09 1.194700e-18 0 
    0.048865 1.002632e-08 1.259700e-18 0 
    0.049888 1.086782e-08 1.310000e-18 0 
    0.050933 1.188908e-08 1.374900e-18 0 
    0.051523 1.259351e-08 1.423200e-18 0 
    0.052119 1.459245e-08 1.611600e-18 0 
    0.052966 1.556434e-08 1.664400e-18 0 
    0.053951 1.675502e-08 1.726900e-18 0 
    0.054954 1.770693e-08 1.759000e-18 0 
    0.055976 1.973047e-08 1.889100e-18 0 
    0.057016 2.203625e-08 2.033600e-18 0 
    0.058076 2.416177e-08 2.149100e-18 0 
    0.059020 2.535887e-08 2.184000e-18 0 
    0.060117 2.819203e-08 2.340200e-18 0 
    0.061094 2.965826e-08 2.383800e-18 0 
    0.062087 3.119943e-08 2.428100e-18 0 
    0.063096 3.648816e-08 2.749600e-18 0 
    0.064121 3.927719e-08 2.865900e-18 0 
    0.065163 4.198942e-08 2.966600e-18 0 
    0.066222 4.593511e-08 3.142400e-18 0 
    0.066988 4.832024e-08 3.230400e-18 0 
    0.067764 5.177741e-08 3.382700e-18 0 
    0.068707 5.522533e-08 3.509600e-18 0 
    0.069663 5.690388e-08 3.517700e-18 0 
    0.070795 6.655011e-08 3.983500e-18 0 
    0.071779 6.716440e-08 3.910800e-18 0 
    0.072946 7.855036e-08 4.428600e-18 0 
    0.073961 8.397349e-08 4.605300e-18 0 
    0.074817 8.894933e-08 4.767200e-18 0 
    0.075858 9.820713e-08 5.119900e-18 0 
    0.076913 1.059604e-07 5.373600e-18 0 
    0.077804 1.117227e-07 5.536800e-18 0 
    0.078886 1.247795e-07 6.015400e-18 0 
    0.079983 1.365009e-07 6.401200e-18 0 
    0.080910 1.459308e-07 6.687500e-18 0 
    0.082035 1.567244e-07 6.986500e-18 0 
    0.082985 1.663942e-07 7.248700e-18 0 
    0.083946 1.832907e-07 7.803000e-18 0 
    0.084918 1.702701e-07 7.083700e-18 0 
    0.086099 2.066038e-07 8.361100e-18 0 
    0.087096 2.198542e-07 8.694800e-18 0 
    0.088105 2.399619e-07 9.273900e-18 0 
    0.089125 2.612990e-07 9.868700e-18 0 
    0.090157 2.865220e-07 1.057500e-17 0 
    0.091201 3.091383e-07 1.115000e-17 0 
    0.092045 3.229634e-07 1.143600e-17 0 
    0.093111 4.832178e-07 1.672100e-17 0 
    0.094189 2.812820e-06 9.511800e-17 0 
    0.095280 6.253723e-06 2.066600e-16 0 
    0.096161 1.239182e-05 4.020300e-16 0 
    0.097275 1.774773e-05 5.626800e-16 0 
    0.098175 2.198567e-05 6.843200e-16 0 
    0.099312 4.744042e-06 1.443000e-16 0 
    0.100231 2.344996e-05 7.002600e-16 0 
    0.101391 2.427380e-05 7.083700e-16 0 
    0.102329 3.266917e-05 9.359700e-16 0 
    0.103276 3.091272e-05 8.694800e-16 0 
    0.104472 1.318678e-05 3.624600e-16 0 
    0.105439 2.501152e-05 6.749300e-16 0 
    0.106414 4.561661e-05 1.208500e-15 0 
    0.107399 4.678796e-05 1.216900e-15 0 
    0.108393 4.056553e-05 1.035800e-15 0 
    0.109396 4.832071e-05 1.211300e-15 0 
    0.110408 4.179519e-05 1.028600e-15 0 
    0.111429 5.310504e-05 1.283100e-15 0 
    0.112461 5.273998e-05 1.251000e-15 0 
    0.113501 5.347516e-05 1.245300e-15 0 
    0.114551 5.048007e-05 1.154100e-15 0 
    0.115611 6.182175e-05 1.387600e-15 0 
    0.116681 5.849679e-05 1.289000e-15 0 
    0.117490 6.268352e-05 1.362300e-15 0 
    0.118577 6.670304e-05 1.423200e-15 0 
    0.119674 5.142027e-05 1.077100e-15 0 
    0.120781 6.763021e-05 1.390800e-15 0 
    0.121619 5.118734e-05 1.038200e-15 0 
    0.122744 4.009990e-05 7.984800e-16 0 
    0.123595 2.255002e-05 4.428600e-16 0 
    0.124738 4.967496e-05 9.577700e-16 0 
    0.125603 7.432653e-05 1.413400e-15 0 
    0.126765 8.435881e-05 1.574900e-15 0 
    0.127644 8.455518e-05 1.556900e-15 0 
    0.128825 7.676148e-05 1.387600e-15 0 
    0.129718 9.641173e-05 1.718900e-15 0 
    0.130918 1.030714e-04 1.804100e-15 0 
    0.131826 8.956670e-05 1.546200e-15 0 
    0.132739 9.018320e-05 1.535500e-15 0 
    0.133968 1.094314e-04 1.829200e-15 0 
    0.134896 1.081807e-04 1.783500e-15 0 
    0.135831 1.014261e-04 1.649200e-15 0 
    0.137088 1.175259e-04 1.876100e-15 0 
    0.138038 1.172550e-04 1.846100e-15 0 
    0.138995 1.104438e-04 1.715000e-15 0 
    0.139959 1.167215e-04 1.787600e-15 0 
    0.140929 1.208210e-04 1.825000e-15 0 
    0.141906 1.104465e-04 1.645400e-15 0 
    0.142889 1.167187e-04 1.715000e-15 0 
    0.144212 1.222176e-04 1.763000e-15 0 
    0.145211 1.262222e-04 1.795800e-15 0 
    0.146218 1.282782e-04 1.800000e-15 0 
    0.146893 1.358739e-04 1.889100e-15 0 
    0.147231 1.384002e-04 1.915400e-15 0 
    0.148252 1.380846e-04 1.884800e-15 0 
    0.149279 1.327842e-04 1.787600e-15 0 
    0.150314 1.346319e-04 1.787600e-15 0 
    0.151356 1.383987e-04 1.812400e-15 0 
    0.152055 1.422772e-04 1.846100e-15 0 
    0.153109 1.396852e-04 1.787600e-15 0 
    0.153815 1.294624e-04 1.641600e-15 0 
    0.154525 1.380784e-04 1.734800e-15 0 
    0.155239 1.368189e-04 1.703200e-15 0 
    0.156315 1.256416e-04 1.542600e-15 0 
    0.157398 1.380827e-04 1.672100e-15 0 
    0.158489 1.333974e-04 1.593200e-15 0 
    0.159221 1.371338e-04 1.622800e-15 0 
    0.160325 1.479614e-04 1.726900e-15 0 
    0.161436 1.560046e-04 1.795800e-15 0 
    0.162555 1.629840e-04 1.850400e-15 0 
    0.163305 1.607490e-04 1.808300e-15 0 
    0.164437 1.637333e-04 1.816600e-15 0 
    0.165577 1.592763e-04 1.742900e-15 0 
    0.166341 1.698805e-04 1.841900e-15 0 
    0.167494 1.754419e-04 1.876100e-15 0 
    0.168655 1.660116e-04 1.750900e-15 0 
    0.169434 1.832902e-04 1.915400e-15 0 
    0.170216 1.683263e-04 1.742900e-15 0 
    0.170608 1.897297e-04 1.955500e-15 0 
    0.171396 1.982136e-04 2.024200e-15 0 
    0.172584 1.906056e-04 1.919800e-15 0 
    0.173780 1.884247e-04 1.871800e-15 0 
    0.174582 1.866933e-04 1.837600e-15 0 
    0.175792 1.892901e-04 1.837600e-15 0 
    0.176604 2.028323e-04 1.951000e-15 0 
    0.177828 2.019010e-04 1.915400e-15 0 
    0.178649 2.168443e-04 2.038300e-15 0 
    0.179887 2.023645e-04 1.876100e-15 0 
    0.180717 2.133697e-04 1.960000e-15 0 
    0.181552 2.188509e-04 1.991900e-15 0 
    0.182810 2.372116e-04 2.129400e-15 0 
    0.183654 2.372146e-04 2.109900e-15 0 
    0.184927 2.302209e-04 2.019600e-15 0 
    0.185780 2.345011e-04 2.038300e-15 0 
    0.186638 2.302162e-04 1.982700e-15 0 
    0.187932 2.158427e-04 1.833400e-15 0 
    0.188799 2.234351e-04 1.880500e-15 0 
    0.189671 2.350372e-04 1.960000e-15 0 
    0.190985 2.506945e-04 2.061900e-15 0 
    0.191867 2.399591e-04 1.955500e-15 0 
    0.192753 2.383164e-04 1.924300e-15 0 
    0.194089 2.506975e-04 1.996500e-15 0 
    0.194984 2.501127e-04 1.973600e-15 0 
    0.195884 2.478225e-04 1.937600e-15 0 
    0.196789 2.461161e-04 1.906600e-15 0 
    0.198153 2.742502e-04 2.095400e-15 0 
    0.199067 2.655450e-04 2.010300e-15 0 
    0.200447 2.918335e-04 2.179000e-15 0 
    0.201372 2.986287e-04 2.209300e-15 0 
    0.201837 2.905039e-04 2.139300e-15 0 
    0.203236 2.885008e-04 2.095400e-15 0 
    0.204174 2.938657e-04 2.114800e-15 0 
    0.205116 2.925025e-04 2.085700e-15 0 
    0.206063 2.993285e-04 2.114800e-15 0 
    0.207014 3.020977e-04 2.114800e-15 0 
    0.207970 3.177977e-04 2.204300e-15 0 
    0.209411 3.112684e-04 2.129400e-15 0 
    0.210378 3.141497e-04 2.129400e-15 0 
    0.211349 3.412963e-04 2.292200e-15 0 
    0.212324 3.582174e-04 2.383800e-15 0 
    0.213304 3.452585e-04 2.276500e-15 0 
    0.214289 3.460514e-04 2.260800e-15 0 
    0.215278 3.573943e-04 2.313500e-15 0 
    0.216272 3.615285e-04 2.318800e-15 0 
    0.217270 3.397276e-04 2.159000e-15 0 
    0.218273 3.640250e-04 2.292200e-15 0 
    0.219281 3.759540e-04 2.345600e-15 0 
    0.220293 3.640323e-04 2.250400e-15 0 
    0.221309 3.673979e-04 2.250400e-15 0 
    0.222331 3.794330e-04 2.302800e-15 0 
    0.223357 4.019172e-04 2.416900e-15 0 
    0.224388 3.936696e-04 2.345600e-15 0 
    0.225424 3.716511e-04 2.194100e-15 0 
    0.226464 3.733616e-04 2.184000e-15 0 
    0.227510 4.160534e-04 2.411400e-15 0 
    0.228560 4.009918e-04 2.302800e-15 0 
    0.229615 3.803089e-04 2.164000e-15 0 
    0.230675 3.881207e-04 2.188200e-15 0 
    0.231739 4.095209e-04 2.287700e-15 0 
    0.232809 4.380989e-04 2.424900e-15 0 
    0.233884 4.148397e-04 2.275100e-15 0 
    0.234423 4.330386e-04 2.364000e-15 0 
    0.235505 4.205730e-04 2.274900e-15 0 
    0.236592 3.492702e-04 1.871900e-15 0 
    0.237684 3.912565e-04 2.077700e-15 0 
    0.238781 3.628902e-04 1.909400e-15 0 
    0.239883 4.326147e-04 2.255400e-15 0 
    0.240991 3.788147e-04 1.956800e-15 0 
    0.241546 4.112313e-04 2.114500e-15 0 
    0.242661 3.609023e-04 1.838700e-15 0 
    0.243781 3.969473e-04 2.003800e-15 0 
    0.244906 3.917825e-04 1.959600e-15 0 
    0.246037 4.105632e-04 2.034700e-15 0 
    0.247172 4.761055e-04 2.337900e-15 0 
    0.247742 4.649239e-04 2.272500e-15 0 
    0.248886 5.066626e-04 2.453800e-15 0 
    0.250035 5.117266e-04 2.455600e-15 0 
    0.251189 5.109506e-04 2.429400e-15 0 
    0.251768 4.864751e-04 2.302400e-15 0 
    0.252930 4.790555e-04 2.246500e-15 0 
    0.254097 4.717786e-04 2.192100e-15 0 
    0.255270 5.611601e-04 2.583500e-15 0 
    0.255859 4.599926e-04 2.108000e-15 0 
    0.256448 4.481486e-04 2.044300e-15 0 
    0.257040 4.426881e-04 2.010100e-15 0 
    0.258226 4.758332e-04 2.140800e-15 0 
    0.258821 4.843032e-04 2.168900e-15 0 
    0.260016 5.642590e-04 2.503800e-15 0 
    0.261216 5.368180e-04 2.360200e-15 0 
    0.262422 5.931827e-04 2.584100e-15 0 
    0.263027 5.846211e-04 2.535100e-15 0 
    0.264241 5.770663e-04 2.479400e-15 0 
    0.265461 5.553940e-04 2.364400e-15 0 
    0.266072 5.398538e-04 2.287700e-15 0 
    0.267301 6.090383e-04 2.557200e-15 0 
    0.268534 6.918523e-04 2.878300e-15 0 
    0.269154 8.103814e-04 3.355900e-15 0 
    0.270396 8.996190e-04 3.691300e-15 0 
    0.271019 7.634038e-04 3.118000e-15 0 
    0.272270 8.262636e-04 3.343800e-15 0 
    0.273527 8.719674e-04 3.496400e-15 0 
    0.274157 7.801572e-04 3.113900e-15 0 
    0.275423 8.522374e-04 3.370400e-15 0 
    0.276694 7.672544e-04 3.006500e-15 0 
    0.277332 7.509789e-04 2.929200e-15 0 
    0.278612 8.298852e-04 3.207300e-15 0 
    0.279254 6.557053e-04 2.522500e-15 0 
    0.280543 7.262577e-04 2.768300e-15 0 
    0.281190 8.049894e-04 3.054300e-15 0 
    0.282488 8.653188e-04 3.253100e-15 0 
    0.283792 7.422909e-04 2.765000e-15 0 
    0.284446 5.143419e-04 1.907100e-15 0 
    0.285759 5.749827e-04 2.112400e-15 0 
    0.286418 8.837932e-04 3.232000e-15 0 
    0.287740 1.025076e-03 3.714300e-15 0 
    0.288403 1.001027e-03 3.610500e-15 0 
    0.289734 9.350722e-04 3.341700e-15 0 
    0.290402 8.101059e-04 2.881800e-15 0 
    0.291743 1.059130e-03 3.733100e-15 0 
    0.292415 1.141968e-03 4.006600e-15 0 
    0.293765 1.127338e-03 3.919000e-15 0 
    0.294442 1.179674e-03 4.082100e-15 0 
    0.296483 1.412119e-03 4.819400e-15 0 
    0.298538 1.352055e-03 4.551100e-15 0 
    0.300608 1.340025e-03 4.448700e-15 0 
    0.302691 1.416565e-03 4.638300e-15 0 
    0.304089 1.454308e-03 4.718200e-15 0 
    0.306196 1.512815e-03 4.840700e-15 0 
    0.308319 1.573728e-03 4.966500e-15 0 
    0.310456 1.648437e-03 5.130900e-15 0 
    0.312608 1.734662e-03 5.325200e-15 0 
    0.314775 1.783863e-03 5.401100e-15 0 
    0.316957 1.894608e-03 5.657700e-15 0 
    0.318420 1.866208e-03 5.521800e-15 0 
    0.320627 1.914784e-03 5.587800e-15 0 
    0.322849 2.043076e-03 5.880400e-15 0 
    0.325087 1.929534e-03 5.477400e-15 0 
    0.326588 2.088824e-03 5.875200e-15 0 
    0.328852 1.959202e-03 5.435000e-15 0 
    0.331131 2.345621e-03 6.417700e-15 0 
    0.332660 2.592495e-03 7.028100e-15 0 
    0.334966 2.623624e-03 7.014900e-15 0 
    0.337287 2.636902e-03 6.953700e-15 0 
    0.338065 2.557535e-03 6.713400e-15 0 
    0.338844 2.732450e-03 7.139600e-15 0 
    0.339625 2.899239e-03 7.540600e-15 0 
    0.340408 2.660859e-03 6.888800e-15 0 
    0.341193 2.665345e-03 6.868700e-15 0 
    0.341979 2.907251e-03 7.457700e-15 0 
    0.342768 2.601500e-03 6.642700e-15 0 
    0.343558 2.349390e-03 5.971400e-15 0 
    0.344350 2.568574e-03 6.498500e-15 0 
    0.345144 2.920294e-03 7.354400e-15 0 
    0.345939 2.711210e-03 6.796500e-15 0 
    0.346737 3.012317e-03 7.516600e-15 0 
    0.347536 2.921699e-03 7.257000e-15 0 
    0.348337 3.114359e-03 7.700000e-15 0 
    0.349140 3.076846e-03 7.572300e-15 0 
    0.349945 3.117788e-03 7.637800e-15 0 
    0.350752 2.509504e-03 6.119400e-15 0 
    0.351560 3.321436e-03 8.062100e-15 0 
    0.352371 3.041347e-03 7.348300e-15 0 
    0.353183 3.096003e-03 7.446000e-15 0 
    0.353997 3.016765e-03 7.222100e-15 0 
    0.354813 3.208364e-03 7.645500e-15 0 
    0.355631 3.111878e-03 7.381500e-15 0 
    0.356451 3.167878e-03 7.479800e-15 0 
    0.357273 3.330487e-03 7.827600e-15 0 
    0.358096 3.049674e-03 7.134700e-15 0 
    0.358922 3.191510e-03 7.432200e-15 0 
    0.359749 3.562354e-03 8.257700e-15 0 
    0.359953 2.046541e-03 4.738600e-15 1 
    0.360228 4.999382e-03 1.155800e-14 1 
    0.360503 5.231420e-03 1.207600e-14 1 
    0.360778 3.122644e-03 7.197200e-15 1 
    0.361053 3.484503e-03 8.019000e-15 1 
    0.361328 2.426985e-03 5.576800e-15 1 
    0.361603 3.183796e-03 7.304700e-15 1 
    0.361878 1.518562e-03 3.478800e-15 1 
    0.362153 3.772930e-03 8.630100e-15 1 
    0.362428 3.157226e-03 7.210800e-15 1 
    0.362703 3.683453e-03 8.399900e-15 1 
    0.362978 3.954743e-03 9.004900e-15 1 
    0.363253 1.721148e-03 3.913100e-15 1 
    0.363528 3.824937e-03 8.683000e-15 1 
    0.363803 1.519408e-03 3.444000e-15 1 
    0.364078 3.437801e-03 7.780600e-15 1 
    0.364353 4.212610e-03 9.519800e-15 1 
    0.364628 2.842060e-03 6.412900e-15 1 
    0.364903 2.142895e-03 4.828000e-15 1 
    0.365178 3.220745e-03 7.245500e-15 1 
    0.365453 5.544350e-03 1.245400e-14 1 
    0.365728 3.833832e-03 8.598800e-15 1 
    0.366003 4.203564e-03 9.413900e-15 1 
    0.366278 3.514847e-03 7.859700e-15 1 
    0.366553 3.764037e-03 8.404300e-15 1 
    0.366828 4.112373e-03 9.168300e-15 1 
    0.367103 3.605313e-03 8.025800e-15 1 
    0.367378 3.428826e-03 7.621500e-15 1 
    0.367653 4.754785e-03 1.055300e-14 1 
    0.367928 3.983833e-03 8.828700e-15 1 
    0.368203 3.394624e-03 7.511700e-15 1 
    0.368478 4.426208e-03 9.779800e-15 1 
    0.368753 3.804188e-03 8.392900e-15 1 
    0.369028 4.105786e-03 9.044800e-15 1 
    0.369303 2.908858e-03 6.398500e-15 1 
    0.369578 2.882460e-03 6.331000e-15 1 
    0.369853 2.513813e-03 5.513100e-15 1 
    0.370128 3.019273e-03 6.611800e-15 1 
    0.370403 3.095333e-03 6.768300e-15 1 
    0.370678 4.094081e-03 8.938900e-15 1 
    0.370953 3.565604e-03 7.773500e-15 1 
    0.371228 3.186448e-03 6.936600e-15 1 
    0.371503 3.625733e-03 7.881200e-15 1 
    0.371778 4.439729e-03 9.636300e-15 1 
    0.372053 3.860676e-03 8.367100e-15 1 
    0.372328 3.870683e-03 8.376400e-15 1 
    0.372603 3.024616e-03 6.535800e-15 1 
    0.372878 4.386464e-03 9.464600e-15 1 
    0.373153 4.389873e-03 9.458000e-15 1 
    0.373428 4.293247e-03 9.236200e-15 1 
    0.373703 3.990658e-03 8.572600e-15 1 
    0.373978 4.114855e-03 8.826400e-15 1 
    0.374253 4.058532e-03 8.692800e-15 1 
    0.374528 3.933533e-03 8.412700e-15 1 
    0.374803 4.022895e-03 8.591200e-15 1 
    0.375078 3.977310e-03 8.481400e-15 1 
    0.375353 4.031470e-03 8.584300e-15 1 
    0.375628 4.168129e-03 8.862300e-15 1 
    0.375903 4.095811e-03 8.695800e-15 1 
    0.376178 4.384589e-03 9.295300e-15 1 
    0.376453 4.681995e-03 9.911300e-15 1 
    0.376728 4.985317e-03 1.053800e-14 1 
    0.377003 4.791719e-03 1.011400e-14 1 
    0.377278 4.152684e-03 8.752400e-15 1 
    0.377553 4.094594e-03 8.617400e-15 1 
    0.377828 4.384023e-03 9.213100e-15 1 
    0.378103 4.397126e-03 9.227200e-15 1 
    0.378378 4.543258e-03 9.520000e-15 1 
    0.378653 5.271057e-03 1.102900e-14 1 
    0.378928 6.108167e-03 1.276200e-14 1 
    0.379203 7.302385e-03 1.523500e-14 1 
    0.379478 8.857179e-03 1.845200e-14 1 
    0.379753 8.999331e-03 1.872100e-14 1 
    0.380028 6.591869e-03 1.369300e-14 1 
    0.380303 5.290097e-03 1.097300e-14 1 
    0.380578 4.550040e-03 9.424300e-15 1 
    0.380853 3.858207e-03 7.979800e-15 1 
    0.381128 4.078860e-03 8.424000e-15 1 
    0.381403 4.119564e-03 8.495800e-15 1 
    0.381678 4.206406e-03 8.662400e-15 1 
    0.381953 3.944571e-03 8.111500e-15 1 
    0.382228 5.093959e-03 1.046000e-14 1 
    0.382503 5.581183e-03 1.144400e-14 1 
    0.382778 5.017299e-03 1.027300e-14 1 
    0.383053 5.351229e-03 1.094100e-14 1 
    0.383328 4.358545e-03 8.898600e-15 1 
    0.383603 4.564092e-03 9.304900e-15 1 
    0.383878 4.192753e-03 8.535600e-15 1 
    0.384153 4.421155e-03 8.987700e-15 1 
    0.384428 4.619263e-03 9.377000e-15 1 
    0.384703 5.912456e-03 1.198500e-14 1 
    0.384978 5.495061e-03 1.112300e-14 1 
    0.385253 5.523198e-03 1.116400e-14 1 
    0.385528 5.533068e-03 1.116800e-14 1 
    0.385803 5.647636e-03 1.138300e-14 1 
    0.386078 5.345653e-03 1.075900e-14 1 
    0.386353 4.582796e-03 9.210500e-15 1 
    0.386628 4.422451e-03 8.875600e-15 1 
    0.386903 5.077119e-03 1.017500e-14 1 
    0.387178 4.740103e-03 9.486100e-15 1 
    0.387453 5.201152e-03 1.039400e-14 1 
    0.387728 5.988766e-03 1.195100e-14 1 
    0.388003 6.397215e-03 1.274800e-14 1 
    0.388278 5.969586e-03 1.187900e-14 1 
    0.388553 6.486322e-03 1.288900e-14 1 
    0.388828 6.122075e-03 1.214800e-14 1 
    0.389103 6.055037e-03 1.199800e-14 1 
    0.389378 5.487966e-03 1.085900e-14 1 
    0.389653 4.554327e-03 8.998900e-15 1 
    0.389928 4.574036e-03 9.025100e-15 1 
    0.390203 3.961611e-03 7.805700e-15 1 
    0.390478 4.816827e-03 9.477400e-15 1 
    0.390753 4.822240e-03 9.474700e-15 1 
    0.391028 4.654823e-03 9.132900e-15 1 
    0.391303 4.798617e-03 9.401800e-15 1 
    0.391578 5.945244e-03 1.163200e-14 1 
    0.391853 6.950130e-03 1.357900e-14 1 
    0.392128 6.623657e-03 1.292300e-14 1 
    0.392403 6.420971e-03 1.251000e-14 1 
    0.392678 6.892048e-03 1.340900e-14 1 
    0.392953 7.052513e-03 1.370200e-14 1 
    0.393228 6.445421e-03 1.250500e-14 1 
    0.393503 7.391765e-03 1.432100e-14 1 
    0.393778 7.323020e-03 1.416800e-14 1 
    0.394053 5.991652e-03 1.157600e-14 1 
    0.394328 6.332776e-03 1.221800e-14 1 
    0.394603 6.688329e-03 1.288600e-14 1 
    0.394878 5.560935e-03 1.069900e-14 1 
    0.395153 5.261076e-03 1.010800e-14 1 
    0.395428 5.249638e-03 1.007200e-14 1 
    0.395703 5.273644e-03 1.010400e-14 1 
    0.395978 4.750108e-03 9.088300e-15 1 
    0.396253 4.856833e-03 9.279600e-15 1 
    0.396528 5.401004e-03 1.030500e-14 1 
    0.396803 5.688238e-03 1.083800e-14 1 
    0.397078 5.524264e-03 1.051100e-14 1 
    0.397353 7.014500e-03 1.332800e-14 1 
    0.397628 6.915118e-03 1.312100e-14 1 
    0.397903 7.206508e-03 1.365500e-14 1 
    0.398178 7.361806e-03 1.393000e-14 1 
    0.398453 7.905428e-03 1.493800e-14 1 
    0.398728 7.407595e-03 1.397800e-14 1 
    0.399003 6.972048e-03 1.313800e-14 1 
    0.399278 7.580560e-03 1.426500e-14 1 
    0.399553 6.838025e-03 1.285000e-14 1 
    0.399828 5.960737e-03 1.118600e-14 1 
    0.400103 5.313883e-03 9.958400e-15 1 
    0.400378 5.767686e-03 1.079400e-14 1 
    0.400653 5.332889e-03 9.966600e-15 1 
    0.400928 5.717638e-03 1.067100e-14 1 
    0.401203 5.821526e-03 1.085000e-14 1 
    0.401478 6.350673e-03 1.182000e-14 1 
    0.401753 7.158871e-03 1.330600e-14 1 
    0.402028 7.779084e-03 1.443900e-14 1 
    0.402303 7.223263e-03 1.338900e-14 1 
    0.402578 6.462774e-03 1.196300e-14 1 
    0.402853 6.819448e-03 1.260600e-14 1 
    0.403128 5.713928e-03 1.054800e-14 1 
    0.403403 6.110661e-03 1.126500e-14 1 
    0.403678 5.047777e-03 9.292900e-15 1 
    0.403953 5.010980e-03 9.212600e-15 1 
    0.404228 4.518617e-03 8.296100e-15 1 
    0.404503 4.837450e-03 8.869400e-15 1 
    0.404778 5.743868e-03 1.051700e-14 1 
    0.405053 6.638189e-03 1.213800e-14 1 
    0.405328 7.434706e-03 1.357600e-14 1 
    0.405603 7.297832e-03 1.330800e-14 1 
    0.405878 7.827201e-03 1.425400e-14 1 
    0.406153 8.750592e-03 1.591400e-14 1 
    0.406428 9.031695e-03 1.640300e-14 1 
    0.406703 9.095749e-03 1.649700e-14 1 
    0.406978 8.496876e-03 1.539000e-14 1 
    0.407253 8.689697e-03 1.571800e-14 1 
    0.407528 8.813263e-03 1.592000e-14 1 
    0.407803 9.210984e-03 1.661600e-14 1 
    0.408078 9.221192e-03 1.661200e-14 1 
    0.408353 8.982384e-03 1.616000e-14 1 
    0.408628 9.254413e-03 1.662700e-14 1 
    0.408903 9.363294e-03 1.680000e-14 1 
    0.409178 9.230230e-03 1.653900e-14 1 
    0.409453 9.750626e-03 1.744800e-14 1 
    0.409728 9.359144e-03 1.672500e-14 1 
    0.410003 8.415769e-03 1.501900e-14 1 
    0.410278 8.199819e-03 1.461400e-14 1 
    0.410553 8.554103e-03 1.522500e-14 1 
    0.410828 8.649956e-03 1.537500e-14 1 
    0.411103 8.435072e-03 1.497300e-14 1 
    0.411378 8.863799e-03 1.571300e-14 1 
    0.411653 8.722013e-03 1.544100e-14 1 
    0.411928 8.276086e-03 1.463200e-14 1 
    0.412203 8.889193e-03 1.569500e-14 1 
    0.412478 9.448902e-03 1.666100e-14 1 
    0.412753 9.009470e-03 1.586500e-14 1 
    0.413028 8.858848e-03 1.557900e-14 1 
    0.413303 8.882606e-03 1.560000e-14 1 
    0.413578 8.860791e-03 1.554100e-14 1 
    0.413853 8.848029e-03 1.549800e-14 1 
    0.414128 9.003283e-03 1.574900e-14 1 
    0.414403 9.177815e-03 1.603300e-14 1 
    0.414678 9.090263e-03 1.585900e-14 1 
    0.414953 8.688504e-03 1.513800e-14 1 
    0.415228 8.574162e-03 1.491900e-14 1 
    0.415503 8.931959e-03 1.552100e-14 1 
    0.415778 9.018698e-03 1.565100e-14 1 
    0.416053 9.477806e-03 1.642600e-14 1 
    0.416328 9.111905e-03 1.577100e-14 1 
    0.416603 8.349298e-03 1.443200e-14 1 
    0.416878 7.662280e-03 1.322700e-14 1 
    0.417153 7.103358e-03 1.224600e-14 1 
    0.417428 6.372761e-03 1.097200e-14 1 
    0.417703 6.279964e-03 1.079800e-14 1 
    0.417978 6.386654e-03 1.096700e-14 1 
    0.418253 7.375283e-03 1.264800e-14 1 
    0.418528 8.186076e-03 1.402000e-14 1 
    0.418803 7.868262e-03 1.345800e-14 1 
    0.419078 8.187700e-03 1.398600e-14 1 
    0.419353 8.912429e-03 1.520400e-14 1 
    0.419628 9.192362e-03 1.566100e-14 1 
    0.419903 9.029271e-03 1.536300e-14 1 
    0.420178 8.706835e-03 1.479500e-14 1 
    0.420453 8.638685e-03 1.466000e-14 1 
    0.420728 9.188695e-03 1.557300e-14 1 
    0.421003 9.058325e-03 1.533200e-14 1 
    0.421278 9.193803e-03 1.554100e-14 1 
    0.421553 9.601505e-03 1.620900e-14 1 
    0.421828 9.349500e-03 1.576300e-14 1 
    0.422103 9.588566e-03 1.614500e-14 1 
    0.422378 8.962380e-03 1.507100e-14 1 
    0.422653 9.124704e-03 1.532400e-14 1 
    0.422928 9.523532e-03 1.597300e-14 1 
    0.423203 9.477415e-03 1.587500e-14 1 
    0.423478 9.380940e-03 1.569300e-14 1 
    0.423753 9.673851e-03 1.616200e-14 1 
    0.424028 8.887501e-03 1.482900e-14 1 
    0.424303 8.959043e-03 1.492900e-14 1 
    0.424578 8.935208e-03 1.487000e-14 1 
    0.424853 9.117660e-03 1.515400e-14 1 
    0.425128 9.034280e-03 1.499600e-14 1 
    0.425403 8.890340e-03 1.473800e-14 1 
    0.425678 9.290817e-03 1.538200e-14 1 
    0.425953 9.581633e-03 1.584300e-14 1 
    0.426228 9.396593e-03 1.551700e-14 1 
    0.426503 1.010784e-02 1.667000e-14 1 
    0.426778 9.736568e-03 1.603700e-14 1 
    0.427053 9.267651e-03 1.524500e-14 1 
    0.427328 9.311851e-03 1.529800e-14 1 
    0.427603 9.134902e-03 1.498800e-14 1 
    0.427878 9.205851e-03 1.508500e-14 1 
    0.428153 9.366783e-03 1.532900e-14 1 
    0.428428 9.591127e-03 1.567600e-14 1 
    0.428703 1.012540e-02 1.652800e-14 1 
    0.428978 9.832301e-03 1.602900e-14 1 
    0.429253 9.658197e-03 1.572500e-14 1 
    0.429528 9.539585e-03 1.551200e-14 1 
    0.429803 8.910173e-03 1.447000e-14 1 
    0.430078 8.555960e-03 1.387700e-14 1 
    0.430353 9.460822e-03 1.532500e-14 1 
    0.430628 9.677519e-03 1.565600e-14 1 
    0.430903 9.721449e-03 1.570700e-14 1 
    0.431178 9.834254e-03 1.586900e-14 1 
    0.431453 1.013286e-02 1.633000e-14 1 
    0.431728 1.011161e-02 1.627500e-14 1 
    0.432003 9.990742e-03 1.606000e-14 1 
    0.432278 9.868301e-03 1.584300e-14 1 
    0.432553 9.918281e-03 1.590300e-14 1 
    0.432828 9.991470e-03 1.600000e-14 1 
    0.433103 9.690915e-03 1.549900e-14 1 
    0.433378 1.039940e-02 1.661100e-14 1 
    0.433653 1.004025e-02 1.601700e-14 1 
    0.433928 9.808836e-03 1.562800e-14 1 
    0.434203 9.712552e-03 1.545500e-14 1 
    0.434478 1.031005e-02 1.638500e-14 1 
    0.434753 1.069104e-02 1.696900e-14 1 
    0.435028 9.704075e-03 1.538300e-14 1 
    0.435303 1.014838e-02 1.606700e-14 1 
    0.435578 1.024532e-02 1.620000e-14 1 
    0.435853 1.040200e-02 1.642700e-14 1 
    0.436128 1.011587e-02 1.595500e-14 1 
    0.436403 1.021688e-02 1.609400e-14 1 
    0.436678 9.850289e-03 1.549700e-14 1 
    0.436953 1.028019e-02 1.615300e-14 1 
    0.437228 9.881490e-03 1.550700e-14 1 
    0.437503 9.003234e-03 1.411100e-14 1 
    0.437778 8.869542e-03 1.388400e-14 1 
    0.438053 8.708627e-03 1.361500e-14 1 
    0.438328 9.151219e-03 1.428900e-14 1 
    0.438603 8.781167e-03 1.369400e-14 1 
    0.438878 9.245466e-03 1.440000e-14 1 
    0.439153 9.813123e-03 1.526500e-14 1 
    0.439428 1.011764e-02 1.571900e-14 1 
    0.439703 1.004524e-02 1.558700e-14 1 
    0.439978 9.559656e-03 1.481500e-14 1 
    0.440253 9.868805e-03 1.527500e-14 1 
    0.440528 9.830681e-03 1.519700e-14 1 
    0.440803 9.260036e-03 1.429700e-14 1 
    0.441078 9.857838e-03 1.520100e-14 1 
    0.441353 8.992918e-03 1.385000e-14 1 
    0.441628 8.135571e-03 1.251400e-14 1 
    0.441903 7.541646e-03 1.158600e-14 1 
    0.442178 8.364404e-03 1.283400e-14 1 
    0.442453 8.502058e-03 1.302900e-14 1 
    0.442728 8.881778e-03 1.359400e-14 1 
    0.443003 9.351391e-03 1.429500e-14 1 
    0.443278 9.579805e-03 1.462600e-14 1 
    0.443553 9.785810e-03 1.492200e-14 1 
    0.443828 1.046047e-02 1.593100e-14 1 
    0.444103 1.036759e-02 1.577000e-14 1 
    0.444378 1.107093e-02 1.681900e-14 1 
    0.444653 1.061077e-02 1.610000e-14 1 
    0.444928 1.036787e-02 1.571200e-14 1 
    0.445203 1.073019e-02 1.624100e-14 1 
    0.445478 1.033796e-02 1.562800e-14 1 
    0.445753 1.086071e-02 1.639800e-14 1 
    0.446028 1.005448e-02 1.516200e-14 1 
    0.446303 1.044334e-02 1.572900e-14 1 
    0.446578 1.094615e-02 1.646600e-14 1 
    0.446853 1.089907e-02 1.637500e-14 1 
    0.447128 1.091049e-02 1.637200e-14 1 
    0.447403 1.051290e-02 1.575600e-14 1 
    0.447678 1.001811e-02 1.499600e-14 1 
    0.447953 1.131599e-02 1.691800e-14 1 
    0.448228 1.065216e-02 1.590600e-14 1 
    0.448503 1.025220e-02 1.529000e-14 1 
    0.448778 1.059910e-02 1.578800e-14 1 
    0.449053 1.055227e-02 1.569900e-14 1 
    0.449328 1.116483e-02 1.659000e-14 1 
    0.449603 1.117041e-02 1.657800e-14 1 
    0.449878 1.139389e-02 1.688900e-14 1 
    0.450153 1.208599e-02 1.789300e-14 1 
    0.450428 1.163818e-02 1.720900e-14 1 
    0.450703 1.134702e-02 1.675800e-14 1 
    0.450978 1.228964e-02 1.812800e-14 1 
    0.451253 1.150641e-02 1.695200e-14 1 
    0.451528 1.115278e-02 1.641100e-14 1 
    0.451803 1.153244e-02 1.694900e-14 1 
    0.452078 1.098717e-02 1.612800e-14 1 
    0.452353 1.132180e-02 1.659900e-14 1 
    0.452628 1.153088e-02 1.688500e-14 1 
    0.452903 1.222453e-02 1.787900e-14 1 
    0.453178 1.252143e-02 1.829100e-14 1 
    0.453453 1.058256e-02 1.544000e-14 1 
    0.453728 1.165493e-02 1.698400e-14 1 
    0.454003 1.066939e-02 1.552900e-14 1 
    0.454278 1.122163e-02 1.631300e-14 1 
    0.454553 1.151760e-02 1.672300e-14 1 
    0.454828 1.121917e-02 1.627000e-14 1 
    0.455103 1.178575e-02 1.707100e-14 1 
    0.455378 1.221473e-02 1.767100e-14 1 
    0.455653 1.208554e-02 1.746300e-14 1 
    0.455928 1.246598e-02 1.799100e-14 1 
    0.456203 1.194615e-02 1.722000e-14 1 
    0.456478 1.202446e-02 1.731200e-14 1 
    0.456753 1.227887e-02 1.765700e-14 1 
    0.457028 1.234936e-02 1.773700e-14 1 
    0.457303 1.214952e-02 1.742900e-14 1 
    0.457578 1.231280e-02 1.764200e-14 1 
    0.457853 1.262318e-02 1.806500e-14 1 
    0.458128 1.279716e-02 1.829200e-14 1 
    0.458403 1.284825e-02 1.834300e-14 1 
    0.458678 1.284053e-02 1.831000e-14 1 
    0.458953 1.297459e-02 1.847900e-14 1 
    0.459228 1.301615e-02 1.851600e-14 1 
    0.459503 1.246588e-02 1.771200e-14 1 
    0.459778 1.210170e-02 1.717400e-14 1 
    0.460053 1.199413e-02 1.700100e-14 1 
    0.460328 1.200565e-02 1.699700e-14 1 
    0.460603 1.261969e-02 1.784500e-14 1 
    0.460878 1.183894e-02 1.672100e-14 1 
    0.461153 1.182897e-02 1.668700e-14 1 
    0.461428 1.190554e-02 1.677500e-14 1 
    0.461703 1.182381e-02 1.664000e-14 1 
    0.461978 1.165720e-02 1.638600e-14 1 
    0.462253 1.214260e-02 1.704800e-14 1 
    0.462528 1.200658e-02 1.683700e-14 1 
    0.462803 1.278765e-02 1.791100e-14 1 
    0.463078 1.275997e-02 1.785100e-14 1 
    0.463353 1.249674e-02 1.746200e-14 1 
    0.463628 1.245282e-02 1.738000e-14 1 
    0.463903 1.240017e-02 1.728600e-14 1 
    0.464178 1.204787e-02 1.677500e-14 1 
    0.464453 1.242240e-02 1.727600e-14 1 
    0.464728 1.296337e-02 1.800700e-14 1 
    0.465003 1.306809e-02 1.813100e-14 1 
    0.465278 1.322354e-02 1.832500e-14 1 
    0.465553 1.278113e-02 1.769100e-14 1 
    0.465828 1.274560e-02 1.762100e-14 1 
    0.466103 1.241016e-02 1.713700e-14 1 
    0.466378 1.228125e-02 1.693900e-14 1 
    0.466653 1.168817e-02 1.610200e-14 1 
    0.466928 1.266634e-02 1.742900e-14 1 
    0.467203 1.260559e-02 1.732500e-14 1 
    0.467478 1.281930e-02 1.759800e-14 1 
    0.467753 1.272135e-02 1.744300e-14 1 
    0.468028 1.237634e-02 1.695000e-14 1 
    0.468303 1.241208e-02 1.697900e-14 1 
    0.468578 1.208414e-02 1.651100e-14 1 
    0.468853 1.295857e-02 1.768500e-14 1 
    0.469128 1.310069e-02 1.785800e-14 1 
    0.469403 1.318510e-02 1.795200e-14 1 
    0.469678 1.312922e-02 1.785500e-14 1 
    0.469953 1.319098e-02 1.791800e-14 1 
    0.470228 1.370541e-02 1.859500e-14 1 
    0.470503 1.364543e-02 1.849200e-14 1 
    0.470778 1.302826e-02 1.763500e-14 1 
    0.471053 1.366034e-02 1.846900e-14 1 
    0.471328 1.361039e-02 1.838000e-14 1 
    0.471603 1.333863e-02 1.799200e-14 1 
    0.471878 1.290143e-02 1.738200e-14 1 
    0.472153 1.312900e-02 1.766800e-14 1 
    0.472428 1.322985e-02 1.778300e-14 1 
    0.472703 1.330038e-02 1.785700e-14 1 
    0.472978 1.284234e-02 1.722200e-14 1 
    0.473253 1.280950e-02 1.715800e-14 1 
    0.473528 1.303068e-02 1.743400e-14 1 
    0.473803 1.335487e-02 1.784700e-14 1 
    0.474078 1.395098e-02 1.862200e-14 1 
    0.474353 1.319088e-02 1.758700e-14 1 
    0.474628 1.261447e-02 1.679900e-14 1 
    0.474903 1.328388e-02 1.767000e-14 1 
    0.475178 1.289209e-02 1.712900e-14 1 
    0.475453 1.279098e-02 1.697500e-14 1 
    0.475728 1.255985e-02 1.664900e-14 1 
    0.476003 1.270881e-02 1.682700e-14 1 
    0.476278 1.331404e-02 1.760800e-14 1 
    0.476553 1.290776e-02 1.705100e-14 1 
    0.476828 1.309395e-02 1.727700e-14 1 
    0.477103 1.356051e-02 1.787200e-14 1 
    0.477378 1.379417e-02 1.815900e-14 1 
    0.477653 1.408461e-02 1.852000e-14 1 
    0.477928 1.325569e-02 1.741000e-14 1 
    0.478203 1.349811e-02 1.770800e-14 1 
    0.478478 1.302981e-02 1.707400e-14 1 
    0.478753 1.275064e-02 1.668900e-14 1 
    0.479028 1.293739e-02 1.691400e-14 1 
    0.479303 1.311919e-02 1.713200e-14 1 
    0.479578 1.307292e-02 1.705200e-14 1 
    0.479853 1.333045e-02 1.736800e-14 1 
    0.480128 1.385058e-02 1.802500e-14 1 
    0.480403 1.328410e-02 1.726800e-14 1 
    0.480678 1.400710e-02 1.818700e-14 1 
    0.480953 1.441329e-02 1.869300e-14 1 
    0.481228 1.326261e-02 1.718100e-14 1 
    0.481503 1.319662e-02 1.707600e-14 1 
    0.481778 1.315600e-02 1.700400e-14 1 
    0.482053 1.397659e-02 1.804400e-14 1 
    0.482328 1.385838e-02 1.787100e-14 1 
    0.482603 1.418163e-02 1.826700e-14 1 
    0.482878 1.413717e-02 1.818900e-14 1 
    0.483153 1.352299e-02 1.737900e-14 1 
    0.483428 1.386168e-02 1.779400e-14 1 
    0.483703 1.407399e-02 1.804600e-14 1 
    0.483978 1.367618e-02 1.751600e-14 1 
    0.484253 1.339704e-02 1.713900e-14 1 
    0.484528 1.389040e-02 1.775000e-14 1 
    0.484803 1.416236e-02 1.807700e-14 1 
    0.485078 1.412823e-02 1.801300e-14 1 
    0.485353 1.372495e-02 1.747900e-14 1 
    0.485628 1.382462e-02 1.758600e-14 1 
    0.485903 1.421568e-02 1.806300e-14 1 
    0.486178 1.435469e-02 1.821900e-14 1 
    0.486453 1.396077e-02 1.769900e-14 1 
    0.486728 1.407210e-02 1.782000e-14 1 
    0.487003 1.401370e-02 1.772600e-14 1 
    0.487278 1.375885e-02 1.738400e-14 1 
    0.487553 1.402952e-02 1.770600e-14 1 
    0.487828 1.370029e-02 1.727100e-14 1 
    0.488103 1.428673e-02 1.799000e-14 1 
    0.488378 1.446423e-02 1.819300e-14 1 
    0.488653 1.405628e-02 1.766000e-14 1 
    0.488928 1.416215e-02 1.777300e-14 1 
    0.489203 1.489924e-02 1.867700e-14 1 
    0.489478 1.435855e-02 1.797900e-14 1 
    0.489753 1.443545e-02 1.805500e-14 1 
    0.490028 1.387776e-02 1.733800e-14 1 
    0.490303 1.379879e-02 1.722000e-14 1 
    0.490578 1.385920e-02 1.727600e-14 1 
    0.490853 1.440400e-02 1.793500e-14 1 
    0.491128 1.388466e-02 1.726900e-14 1 
    0.491403 1.378833e-02 1.713000e-14 1 
    0.491678 1.405519e-02 1.744200e-14 1 
    0.491953 1.413303e-02 1.751900e-14 1 
    0.492228 1.401234e-02 1.735000e-14 1 
    0.492503 1.418809e-02 1.754800e-14 1 
    0.492778 1.401939e-02 1.732000e-14 1 
    0.493053 1.376844e-02 1.699100e-14 1 
    0.493328 1.314617e-02 1.620500e-14 1 
    0.493603 1.319413e-02 1.624600e-14 1 
    0.493878 1.272344e-02 1.564900e-14 1 
    0.494153 1.249994e-02 1.535700e-14 1 
    0.494428 1.207220e-02 1.481500e-14 1 
    0.494703 1.173975e-02 1.439100e-14 1 
    0.494978 1.171279e-02 1.434200e-14 1 
    0.495253 1.189504e-02 1.454900e-14 1 
    0.495528 1.197947e-02 1.463600e-14 1 
    0.495803 1.250407e-02 1.526000e-14 1 
    0.496078 1.246627e-02 1.519700e-14 1 
    0.496353 1.290877e-02 1.571900e-14 1 
    0.496628 1.346897e-02 1.638300e-14 1 
    0.496903 1.386332e-02 1.684400e-14 1 
    0.497178 1.373365e-02 1.666800e-14 1 
    0.497453 1.396661e-02 1.693200e-14 1 
    0.497728 1.407207e-02 1.704100e-14 1 
    0.498003 1.399669e-02 1.693100e-14 1 
    0.498278 1.464940e-02 1.770100e-14 1 
    0.498553 1.502184e-02 1.813100e-14 1 
    0.498828 1.465854e-02 1.767300e-14 1 
    0.499103 1.441065e-02 1.735500e-14 1 
    0.499378 1.438082e-02 1.730000e-14 1 
    0.499653 1.474534e-02 1.771900e-14 1 
    0.499928 1.483073e-02 1.780200e-14 1 
    0.500203 1.403472e-02 1.682800e-14 1 
    0.500478 1.359345e-02 1.628100e-14 1 
    0.500753 1.447517e-02 1.731800e-14 1 
    0.501028 1.446011e-02 1.728100e-14 1 
    0.501303 1.434950e-02 1.713000e-14 1 
    0.501578 1.420591e-02 1.694000e-14 1 
    0.501853 1.470674e-02 1.751800e-14 1 
    0.502128 1.463377e-02 1.741200e-14 1 
    0.502403 1.502673e-02 1.786000e-14 1 
    0.502678 1.550476e-02 1.840800e-14 1 
    0.502953 1.562882e-02 1.853500e-14 1 
    0.503228 1.544923e-02 1.830200e-14 1 
    0.503503 1.474276e-02 1.744600e-14 1 
    0.503778 1.498136e-02 1.770900e-14 1 
    0.504053 1.507394e-02 1.779900e-14 1 
    0.504328 1.485724e-02 1.752400e-14 1 
    0.504603 1.502028e-02 1.769700e-14 1 
    0.504878 1.538757e-02 1.811000e-14 1 
    0.505153 1.576244e-02 1.853100e-14 1 
    0.505428 1.582303e-02 1.858200e-14 1 
    0.505703 1.565869e-02 1.836900e-14 1 
    0.505978 1.542397e-02 1.807400e-14 1 
    0.506253 1.516566e-02 1.775200e-14 1 
    0.506528 1.500852e-02 1.754900e-14 1 
    0.506803 1.466010e-02 1.712300e-14 1 
    0.507078 1.455431e-02 1.698100e-14 1 
    0.507353 1.438734e-02 1.676800e-14 1 
    0.507628 1.445963e-02 1.683400e-14 1 
    0.507903 1.445294e-02 1.680800e-14 1 
    0.508178 1.441523e-02 1.674600e-14 1 
    0.508453 1.477898e-02 1.715000e-14 1 
    0.508728 1.530913e-02 1.774600e-14 1 
    0.509003 1.550013e-02 1.794800e-14 1 
    0.509278 1.616616e-02 1.869900e-14 1 
    0.509553 1.646491e-02 1.902400e-14 1 
    0.509828 1.666463e-02 1.923400e-14 1 
    0.510103 1.590460e-02 1.833700e-14 1 
    0.510378 1.497358e-02 1.724500e-14 1 
    0.510653 1.450035e-02 1.668200e-14 1 
    0.510928 1.463432e-02 1.681800e-14 1 
    0.511203 1.417881e-02 1.627700e-14 1 
    0.511478 1.486030e-02 1.704100e-14 1 
    0.511753 1.508667e-02 1.728200e-14 1 
    0.512028 1.467118e-02 1.678800e-14 1 
    0.512303 1.506050e-02 1.721500e-14 1 
    0.512578 1.488313e-02 1.699400e-14 1 
    0.512853 1.460978e-02 1.666400e-14 1 
    0.513128 1.480099e-02 1.686400e-14 1 
    0.513403 1.487836e-02 1.693400e-14 1 
    0.513678 1.522677e-02 1.731200e-14 1 
    0.513953 1.517616e-02 1.723600e-14 1 
    0.514228 1.539514e-02 1.746600e-14 1 
    0.514503 1.561632e-02 1.769800e-14 1 
    0.514778 1.552967e-02 1.758100e-14 1 
    0.515053 1.555953e-02 1.759600e-14 1 
    0.515328 1.560448e-02 1.762800e-14 1 
    0.515603 1.526224e-02 1.722300e-14 1 
    0.515878 1.528296e-02 1.722800e-14 1 
    0.516153 1.553104e-02 1.748900e-14 1 
    0.516428 1.544714e-02 1.737600e-14 1 
    0.516703 1.505511e-02 1.691700e-14 1 
    0.516978 1.481724e-02 1.663200e-14 1 
    0.517253 1.480090e-02 1.659600e-14 1 
    0.517528 1.540142e-02 1.725100e-14 1 
    0.517803 1.596475e-02 1.786300e-14 1 
    0.518078 1.521229e-02 1.700300e-14 1 
    0.518353 1.490154e-02 1.663800e-14 1 
    0.518628 1.564179e-02 1.744600e-14 1 
    0.518903 1.552375e-02 1.729600e-14 1 
    0.519178 1.515925e-02 1.687200e-14 1 
    0.519453 1.561334e-02 1.735900e-14 1 
    0.519728 1.601795e-02 1.779000e-14 1 
    0.520003 1.560857e-02 1.731700e-14 1 
    0.520278 1.556914e-02 1.725500e-14 1 
    0.520553 1.590535e-02 1.760900e-14 1 
    0.520828 1.565452e-02 1.731300e-14 1 
    0.521103 1.545653e-02 1.707600e-14 1 
    0.521378 1.535777e-02 1.694900e-14 1 
    0.521653 1.522431e-02 1.678400e-14 1 
    0.521928 1.525853e-02 1.680400e-14 1 
    0.522203 1.495737e-02 1.645500e-14 1 
    0.522478 1.503774e-02 1.652600e-14 1 
    0.522753 1.509456e-02 1.657100e-14 1 
    0.523028 1.500467e-02 1.645500e-14 1 
    0.523303 1.532168e-02 1.678500e-14 1 
    0.523578 1.545019e-02 1.690800e-14 1 
    0.523853 1.497703e-02 1.637300e-14 1 
    0.524128 1.489936e-02 1.627100e-14 1 
    0.524403 1.532750e-02 1.672100e-14 1 
    0.524678 1.512794e-02 1.648600e-14 1 
    0.524953 1.552409e-02 1.690000e-14 1 
    0.525228 1.595968e-02 1.735600e-14 1 
    0.525503 1.558610e-02 1.693200e-14 1 
    0.525778 1.516195e-02 1.645400e-14 1 
    0.526053 1.464188e-02 1.587300e-14 1 
    0.526328 1.375225e-02 1.489300e-14 1 
    0.526603 1.308722e-02 1.415800e-14 1 
    0.526878 1.421036e-02 1.535700e-14 1 
    0.527153 1.532565e-02 1.654500e-14 1 
    0.527428 1.477508e-02 1.593400e-14 1 
    0.527703 1.432823e-02 1.543600e-14 1 
    0.527978 1.426419e-02 1.535100e-14 1 
    0.528253 1.525015e-02 1.639500e-14 1 
    0.528528 1.552582e-02 1.667400e-14 1 
    0.528803 1.546462e-02 1.659100e-14 1 
    0.529078 1.613759e-02 1.729500e-14 1 
    0.529353 1.620481e-02 1.734900e-14 1 
    0.529628 1.621417e-02 1.734100e-14 1 
    0.529903 1.579484e-02 1.687500e-14 1 
    0.530178 1.539054e-02 1.642600e-14 1 
    0.530453 1.544778e-02 1.647000e-14 1 
    0.530728 1.597645e-02 1.701600e-14 1 
    0.531003 1.652310e-02 1.758000e-14 1 
    0.531278 1.640756e-02 1.743900e-14 1 
    0.531553 1.628987e-02 1.729600e-14 1 
    0.531828 1.644532e-02 1.744300e-14 1 
    0.532103 1.582434e-02 1.676700e-14 1 
    0.532378 1.565080e-02 1.656600e-14 1 
    0.532653 1.624671e-02 1.717900e-14 1 
    0.532928 1.689210e-02 1.784300e-14 1 
    0.533203 1.665272e-02 1.757200e-14 1 
    0.533478 1.716415e-02 1.809300e-14 1 
    0.533753 1.739647e-02 1.831900e-14 1 
    0.534028 1.692008e-02 1.779900e-14 1 
    0.534303 1.643411e-02 1.727000e-14 1 
    0.534578 1.711689e-02 1.796900e-14 1 
    0.534853 1.688086e-02 1.770300e-14 1 
    0.535128 1.679799e-02 1.759800e-14 1 
    0.535403 1.684966e-02 1.763400e-14 1 
    0.535678 1.677228e-02 1.753500e-14 1 
    0.535953 1.581191e-02 1.651400e-14 1 
    0.536228 1.540450e-02 1.607200e-14 1 
    0.536503 1.596527e-02 1.664000e-14 1 
    0.536778 1.579532e-02 1.644600e-14 1 
    0.537053 1.577978e-02 1.641300e-14 1 
    0.537328 1.663516e-02 1.728500e-14 1 
    0.537603 1.671770e-02 1.735300e-14 1 
    0.537878 1.709356e-02 1.772500e-14 1 
    0.538153 1.698651e-02 1.759600e-14 1 
    0.538428 1.712274e-02 1.771900e-14 1 
    0.538703 1.731919e-02 1.790400e-14 1 
    0.538978 1.690597e-02 1.745900e-14 1 
    0.539253 1.702210e-02 1.756100e-14 1 
    0.539528 1.751879e-02 1.805500e-14 1 
    0.539803 1.764156e-02 1.816300e-14 1 
    0.540078 1.744952e-02 1.794700e-14 1 
    0.540353 1.802401e-02 1.851900e-14 1 
    0.540628 1.844083e-02 1.892800e-14 1 
    0.540903 1.789785e-02 1.835200e-14 1 
    0.541178 1.796389e-02 1.840100e-14 1 
    0.541453 1.814730e-02 1.857000e-14 1 
    0.541728 1.754261e-02 1.793300e-14 1 
    0.542003 1.708648e-02 1.744900e-14 1 
    0.542278 1.721459e-02 1.756200e-14 1 
    0.542553 1.731350e-02 1.764500e-14 1 
    0.542828 1.717881e-02 1.749000e-14 1 
    0.543103 1.736140e-02 1.765800e-14 1 
    0.543378 1.782581e-02 1.811200e-14 1 
    0.543653 1.751184e-02 1.777500e-14 1 
    0.543928 1.720807e-02 1.744900e-14 1 
    0.544203 1.746832e-02 1.769500e-14 1 
    0.544478 1.814016e-02 1.835700e-14 1 
    0.544753 1.820498e-02 1.840400e-14 1 
    0.545028 1.838278e-02 1.856500e-14 1 
    0.545303 1.881962e-02 1.898700e-14 1 
    0.545578 1.912535e-02 1.927600e-14 1 
    0.545853 1.857653e-02 1.870400e-14 1 
    0.546128 1.838647e-02 1.849400e-14 1 
    0.546403 1.834727e-02 1.843600e-14 1 
    0.546678 1.771225e-02 1.778000e-14 1 
    0.546953 1.784874e-02 1.789900e-14 1 
    0.547228 1.843466e-02 1.846800e-14 1 
    0.547503 1.809948e-02 1.811400e-14 1 
    0.547778 1.723649e-02 1.723300e-14 1 
    0.548053 1.832709e-02 1.830500e-14 1 
    0.548328 1.810396e-02 1.806400e-14 1 
    0.548603 1.757135e-02 1.751500e-14 1 
    0.548878 1.781292e-02 1.773800e-14 1 
    0.549153 1.787701e-02 1.778400e-14 1 
    0.549428 1.762022e-02 1.751100e-14 1 
    0.549703 1.730345e-02 1.717900e-14 1 
    0.549978 1.753956e-02 1.739600e-14 1 
    0.550253 1.797292e-02 1.780800e-14 1 
    0.550528 1.732916e-02 1.715300e-14 1 
    0.550803 1.772976e-02 1.753200e-14 1 
    0.551078 1.808051e-02 1.786100e-14 1 
    0.551353 1.883725e-02 1.859000e-14 1 
    0.551628 1.874245e-02 1.847800e-14 1 
    0.551903 1.890430e-02 1.861900e-14 1 
    0.552178 1.875240e-02 1.845100e-14 1 
    0.552453 1.764590e-02 1.734500e-14 1 
    0.552728 1.779891e-02 1.747800e-14 1 
    0.553003 1.796545e-02 1.762400e-14 1 
    0.553278 1.852005e-02 1.815000e-14 1 
    0.553553 1.832091e-02 1.793700e-14 1 
    0.553828 1.861210e-02 1.820400e-14 1 
    0.554103 1.897958e-02 1.854500e-14 1 
    0.554378 1.852922e-02 1.808700e-14 1 
    0.554653 1.764007e-02 1.720200e-14 1 
    0.554928 1.869124e-02 1.820900e-14 1 
    0.555203 1.744389e-02 1.697700e-14 1 
    0.555478 1.835701e-02 1.784800e-14 1 
    0.555753 1.920706e-02 1.865600e-14 1 
    0.556028 1.846655e-02 1.791900e-14 1 
    0.556303 1.837857e-02 1.781600e-14 1 
    0.556578 1.912473e-02 1.852100e-14 1 
    0.556853 1.878290e-02 1.817200e-14 1 
    0.557128 1.914081e-02 1.850000e-14 1 
    0.557403 1.800392e-02 1.738400e-14 1 
    0.557678 1.784027e-02 1.720900e-14 1 
    0.557953 1.793258e-02 1.728100e-14 1 
    0.558228 1.800947e-02 1.733800e-14 1 
    0.558503 1.845872e-02 1.775300e-14 1 
    0.558778 1.906494e-02 1.831800e-14 1 
    0.559053 1.840653e-02 1.766800e-14 1 
    0.559328 1.882510e-02 1.805200e-14 1 
    0.559603 1.905760e-02 1.825700e-14 1 
    0.559878 1.753514e-02 1.678200e-14 1 
    0.560153 1.821861e-02 1.741900e-14 1 
    0.560428 1.823755e-02 1.742000e-14 1 
    0.560703 1.846190e-02 1.761700e-14 1 
    0.560978 1.819154e-02 1.734200e-14 1 
    0.561253 1.841204e-02 1.753500e-14 1 
    0.561528 1.822828e-02 1.734300e-14 1 
    0.561803 1.916776e-02 1.821900e-14 1 
    0.562078 1.968149e-02 1.868900e-14 1 
    0.562353 1.868035e-02 1.772100e-14 1 
    0.562628 1.878620e-02 1.780400e-14 1 
    0.562903 1.881302e-02 1.781200e-14 1 
    0.563178 1.836517e-02 1.737100e-14 1 
    0.563453 1.933131e-02 1.826700e-14 1 
    0.563728 1.951650e-02 1.842400e-14 1 
    0.564003 1.952282e-02 1.841200e-14 1 
    0.564278 1.976262e-02 1.862000e-14 1 
    0.564553 2.031309e-02 1.912000e-14 1 
    0.564828 1.932581e-02 1.817300e-14 1 
    0.565103 1.969804e-02 1.850500e-14 1 
    0.565378 2.004752e-02 1.881500e-14 1 
    0.565653 2.034433e-02 1.907500e-14 1 
    0.565928 1.996805e-02 1.870400e-14 1 
    0.566203 1.951513e-02 1.826200e-14 1 
    0.566478 1.939931e-02 1.813600e-14 1 
    0.566753 1.954021e-02 1.825000e-14 1 
    0.567028 1.961491e-02 1.830200e-14 1 
    0.567303 1.961785e-02 1.828700e-14 1 
    0.567578 1.970882e-02 1.835400e-14 1 
    0.567853 2.011809e-02 1.871700e-14 1 
    0.568128 1.973089e-02 1.833900e-14 1 
    0.568403 1.910922e-02 1.774400e-14 1 
    0.568678 1.901237e-02 1.763700e-14 1 
    0.568953 1.983787e-02 1.838500e-14 1 
    0.569228 1.884827e-02 1.745100e-14 1 
    0.569503 1.894000e-02 1.751900e-14 1 
    0.569778 1.906327e-02 1.761600e-14 1 
    0.570053 1.945213e-02 1.795800e-14 1 
    0.570328 1.863820e-02 1.719000e-14 1 
    0.570603 1.932906e-02 1.781000e-14 1 
    0.570878 2.015593e-02 1.855400e-14 1 
    0.571153 1.901729e-02 1.748900e-14 1 
    0.571428 2.004350e-02 1.841500e-14 1 
    0.571703 2.021423e-02 1.855400e-14 1 
    0.571978 1.938416e-02 1.777500e-14 1 
    0.572253 1.878388e-02 1.720800e-14 1 
    0.572528 1.991314e-02 1.822500e-14 1 
    0.572803 2.015429e-02 1.842800e-14 1 
    0.573078 1.963395e-02 1.793500e-14 1 
    0.573353 1.993879e-02 1.819600e-14 1 
    0.573628 2.063686e-02 1.881500e-14 1 
    0.573903 1.938091e-02 1.765300e-14 1 
    0.574178 2.011819e-02 1.830700e-14 1 
    0.574453 1.968868e-02 1.789900e-14 1 
    0.574728 1.918454e-02 1.742400e-14 1 
    0.575003 1.974513e-02 1.791600e-14 1 
    0.575278 1.934482e-02 1.753600e-14 1 
    0.575553 2.031846e-02 1.840100e-14 1 
    0.575828 1.934204e-02 1.750000e-14 1 
    0.576103 1.969242e-02 1.780000e-14 1 
    0.576378 1.952629e-02 1.763300e-14 1 
    0.576653 2.006145e-02 1.809900e-14 1 
    0.576928 2.102033e-02 1.894600e-14 1 
    0.577203 1.973326e-02 1.776900e-14 1 
    0.577478 1.987657e-02 1.788100e-14 1 
    0.577753 2.058647e-02 1.850200e-14 1 
    0.578028 2.120414e-02 1.903900e-14 1 
    0.578303 2.108943e-02 1.891800e-14 1 
    0.578578 2.013759e-02 1.804700e-14 1 
    0.578853 2.011542e-02 1.801000e-14 1 
    0.579128 2.072594e-02 1.853900e-14 1 
    0.579403 2.101083e-02 1.877600e-14 1 
    0.579678 2.090309e-02 1.866200e-14 1 
    0.579953 2.067515e-02 1.844100e-14 1 
    0.580228 2.102470e-02 1.873500e-14 1 
    0.580503 1.970681e-02 1.754400e-14 1 
    0.580778 2.040796e-02 1.815100e-14 1 
    0.581053 1.985784e-02 1.764500e-14 1 
    0.581328 2.049620e-02 1.819500e-14 1 
    0.581603 2.082454e-02 1.846900e-14 1 
    0.581878 2.102143e-02 1.862600e-14 1 
    0.582153 2.127175e-02 1.883000e-14 1 
    0.582428 2.114147e-02 1.869700e-14 1 
    0.582703 2.132555e-02 1.884200e-14 1 
    0.582978 2.105113e-02 1.858200e-14 1 
    0.583253 2.019899e-02 1.781300e-14 1 
    0.583528 2.052223e-02 1.808100e-14 1 
    0.583803 2.116529e-02 1.863000e-14 1 
    0.584078 2.132851e-02 1.875600e-14 1 
    0.584353 2.113576e-02 1.856900e-14 1 
    0.584628 2.177088e-02 1.910900e-14 1 
    0.584903 2.146864e-02 1.882600e-14 1 
    0.585178 2.102768e-02 1.842200e-14 1 
    0.585453 2.163699e-02 1.893800e-14 1 
    0.585728 2.196724e-02 1.920900e-14 1 
    0.586003 2.122781e-02 1.854500e-14 1 
    0.586278 2.157428e-02 1.883000e-14 1 
    0.586553 2.095460e-02 1.827200e-14 1 
    0.586828 2.123367e-02 1.849800e-14 1 
    0.587103 2.140639e-02 1.863100e-14 1 
    0.587378 2.254199e-02 1.960100e-14 1 
    0.587653 2.106089e-02 1.829600e-14 1 
    0.587928 2.082367e-02 1.807300e-14 1 
    0.588203 1.983058e-02 1.719500e-14 1 
    0.588478 2.029817e-02 1.758400e-14 1 
    0.588753 2.026284e-02 1.753700e-14 1 
    0.589028 1.967576e-02 1.701300e-14 1 
    0.589303 2.033544e-02 1.756700e-14 1 
    0.589578 2.082948e-02 1.797700e-14 1 
    0.589853 2.199128e-02 1.896200e-14 1 
    0.590128 2.063736e-02 1.777800e-14 1 
    0.590403 2.127357e-02 1.830900e-14 1 
    0.590678 2.056419e-02 1.768200e-14 1 
    0.590953 2.094189e-02 1.799000e-14 1 
    0.591228 2.201120e-02 1.889100e-14 1 
    0.591503 2.177977e-02 1.867500e-14 1 
    0.591778 2.176850e-02 1.864800e-14 1 
    0.592053 2.245474e-02 1.921800e-14 1 
    0.592328 2.244286e-02 1.919000e-14 1 
    0.592603 2.274114e-02 1.942700e-14 1 
    0.592878 2.272358e-02 1.939400e-14 1 
    0.593153 2.254295e-02 1.922200e-14 1 
    0.593428 2.246056e-02 1.913400e-14 1 
    0.593703 2.245671e-02 1.911300e-14 1 
    0.593978 2.216351e-02 1.884600e-14 1 
    0.594253 2.228056e-02 1.892800e-14 1 
    0.594528 2.310002e-02 1.960600e-14 1 
    0.594803 2.383133e-02 2.020800e-14 1 
    0.595078 2.334699e-02 1.977900e-14 1 
    0.595353 2.294087e-02 1.941700e-14 1 
    0.595628 2.214255e-02 1.872400e-14 1 
    0.595903 2.089766e-02 1.765500e-14 1 
    0.596178 2.072739e-02 1.749500e-14 1 
    0.596453 2.059472e-02 1.736700e-14 1 
    0.596728 2.111224e-02 1.778700e-14 1 
    0.597003 2.105448e-02 1.772200e-14 1 
    0.597278 2.093118e-02 1.760200e-14 1 
    0.597553 2.158247e-02 1.813300e-14 1 
    0.597828 2.234692e-02 1.875800e-14 1 
    0.598103 2.286115e-02 1.917200e-14 1 
    0.598378 2.241909e-02 1.878400e-14 1 
    0.598653 2.276822e-02 1.905900e-14 1 
    0.598928 2.092861e-02 1.750300e-14 1 
    0.599203 1.945661e-02 1.625700e-14 1 
    0.599478 1.810166e-02 1.511100e-14 1 
    0.599753 1.769982e-02 1.476200e-14 1 
    0.600028 1.853213e-02 1.544200e-14 1 
    0.600303 1.958336e-02 1.630300e-14 1 
    0.600578 1.976723e-02 1.644100e-14 1 
    0.600853 2.141476e-02 1.779500e-14 1 
    0.601128 2.120792e-02 1.760700e-14 1 
    0.601403 2.201580e-02 1.826100e-14 1 
    0.601678 2.109228e-02 1.747900e-14 1 
    0.601953 2.148720e-02 1.779000e-14 1 
    0.602228 2.198920e-02 1.818900e-14 1 
    0.602503 2.274378e-02 1.879600e-14 1 
    0.602778 2.236366e-02 1.846500e-14 1 
    0.603053 2.202403e-02 1.816800e-14 1 
    0.603328 2.180509e-02 1.797100e-14 1 
    0.603603 2.191484e-02 1.804500e-14 1 
    0.603878 2.202355e-02 1.811800e-14 1 
    0.604153 2.224802e-02 1.828600e-14 1 
    0.604428 2.237422e-02 1.837300e-14 1 
    0.604703 2.193872e-02 1.799900e-14 1 
    0.604978 2.154876e-02 1.766300e-14 1 
    0.605253 2.154882e-02 1.764700e-14 1 
    0.605528 2.239951e-02 1.832700e-14 1 
    0.605803 2.288106e-02 1.870400e-14 1 
    0.606078 2.304999e-02 1.882500e-14 1 
    0.606353 2.247407e-02 1.833800e-14 1 
    0.606628 2.187255e-02 1.783100e-14 1 
    0.606903 2.249522e-02 1.832200e-14 1 
    0.607178 2.257459e-02 1.837000e-14 1 
    0.607453 2.251510e-02 1.830500e-14 1 
    0.607728 2.188546e-02 1.777700e-14 1 
    0.608003 2.201617e-02 1.786700e-14 1 
    0.608278 2.216683e-02 1.797300e-14 1 
    0.608553 2.267695e-02 1.837000e-14 1 
    0.608828 2.167687e-02 1.754400e-14 1 
    0.609103 2.120673e-02 1.714800e-14 1 
    0.609378 2.260480e-02 1.826200e-14 1 
    0.609653 2.282963e-02 1.842700e-14 1 
    0.609928 2.317264e-02 1.868700e-14 1 
    0.610203 2.198465e-02 1.771300e-14 1 
    0.610478 2.252126e-02 1.812900e-14 1 
    0.610753 2.207776e-02 1.775600e-14 1 
    0.611028 2.164216e-02 1.739000e-14 1 
    0.611303 2.223214e-02 1.784800e-14 1 
    0.611578 2.195043e-02 1.760600e-14 1 
    0.611853 2.206377e-02 1.768100e-14 1 
    0.612128 2.209360e-02 1.768900e-14 1 
    0.612403 2.196594e-02 1.757100e-14 1 
    0.612678 2.267887e-02 1.812500e-14 1 
    0.612953 2.253266e-02 1.799200e-14 1 
    0.613228 2.239369e-02 1.786500e-14 1 
    0.613503 2.325438e-02 1.853500e-14 1 
    0.613778 2.294245e-02 1.827000e-14 1 
    0.614053 2.374982e-02 1.889600e-14 1 
    0.614328 2.387803e-02 1.898100e-14 1 
    0.614603 2.397622e-02 1.904200e-14 1 
    0.614878 2.278784e-02 1.808200e-14 1 
    0.615153 2.306302e-02 1.828400e-14 1 
    0.615428 2.346114e-02 1.858300e-14 1 
    0.615703 2.352128e-02 1.861400e-14 1 
    0.615978 2.381043e-02 1.882600e-14 1 
    0.616253 2.249491e-02 1.777000e-14 1 
    0.616528 2.264423e-02 1.787200e-14 1 
    0.616803 2.276842e-02 1.795400e-14 1 
    0.617078 2.309336e-02 1.819400e-14 1 
    0.617353 2.194897e-02 1.727700e-14 1 
    0.617628 2.244663e-02 1.765300e-14 1 
    0.617903 2.353822e-02 1.849500e-14 1 
    0.618178 2.304838e-02 1.809400e-14 1 
    0.618453 2.293630e-02 1.799000e-14 1 
    0.618728 2.364068e-02 1.852600e-14 1 
    0.619003 2.253136e-02 1.764100e-14 1 
    0.619278 2.261658e-02 1.769200e-14 1 
    0.619553 2.315230e-02 1.809500e-14 1 
    0.619828 2.260811e-02 1.765400e-14 1 
    0.620103 2.327162e-02 1.815600e-14 1 
    0.620378 2.389651e-02 1.862700e-14 1 
    0.620653 2.349782e-02 1.830000e-14 1 
    0.620928 2.293132e-02 1.784300e-14 1 
    0.621203 2.248213e-02 1.747800e-14 1 
    0.621478 2.235141e-02 1.736100e-14 1 
    0.621753 2.315852e-02 1.797200e-14 1 
    0.622028 2.334410e-02 1.810000e-14 1 
    0.622303 2.286260e-02 1.771100e-14 1 
    0.622578 2.225360e-02 1.722400e-14 1 
    0.622853 2.260819e-02 1.748300e-14 1 
    0.623128 2.357688e-02 1.821600e-14 1 
    0.623403 2.395912e-02 1.849500e-14 1 
    0.623678 2.389728e-02 1.843100e-14 1 
    0.623953 2.396637e-02 1.846800e-14 1 
    0.624228 2.318091e-02 1.784700e-14 1 
    0.624503 2.293093e-02 1.763900e-14 1 
    0.624778 2.290299e-02 1.760200e-14 1 
    0.625053 2.231368e-02 1.713400e-14 1 
    0.625328 2.330699e-02 1.788100e-14 1 
    0.625603 2.420810e-02 1.855600e-14 1 
    0.625878 2.325530e-02 1.781000e-14 1 
    0.626153 2.267065e-02 1.734700e-14 1 
    0.626428 2.360358e-02 1.804500e-14 1 
    0.626703 2.353790e-02 1.797900e-14 1 
    0.626978 2.312616e-02 1.764900e-14 1 
    0.627253 2.180479e-02 1.662600e-14 1 
    0.627528 2.227022e-02 1.696600e-14 1 
    0.627803 2.188903e-02 1.666100e-14 1 
    0.628078 2.234083e-02 1.699000e-14 1 
    0.628353 2.191292e-02 1.665000e-14 1 
    0.628628 2.384738e-02 1.810400e-14 1 
    0.628903 2.294537e-02 1.740400e-14 1 
    0.629178 2.431138e-02 1.842400e-14 1 
    0.629453 2.219046e-02 1.680200e-14 1 
    0.629728 2.345108e-02 1.774100e-14 1 
    0.630003 2.337234e-02 1.766600e-14 1 
    0.630278 2.209374e-02 1.668500e-14 1 
    0.630553 2.243905e-02 1.693100e-14 1 
    0.630828 2.218140e-02 1.672200e-14 1 
    0.631103 2.303582e-02 1.735100e-14 1 
    0.631378 2.488299e-02 1.872600e-14 1 
    0.631653 2.429024e-02 1.826400e-14 1 
    0.631928 2.442720e-02 1.835100e-14 1 
    0.632203 2.383295e-02 1.788900e-14 1 
    0.632478 2.365901e-02 1.774300e-14 1 
    0.632753 2.251983e-02 1.687400e-14 1 
    0.633028 2.312981e-02 1.731600e-14 1 
    0.633303 2.253895e-02 1.685900e-14 1 
    0.633578 2.480247e-02 1.853600e-14 1 
    0.633853 2.165940e-02 1.617300e-14 1 
    0.634128 2.310840e-02 1.724000e-14 1 
    0.634403 2.329077e-02 1.736100e-14 1 
    0.634678 2.279402e-02 1.697600e-14 1 
    0.634953 2.270358e-02 1.689400e-14 1 
    0.635228 2.299226e-02 1.709400e-14 1 
    0.635503 2.249657e-02 1.671100e-14 1 
    0.635778 2.389576e-02 1.773500e-14 1 
    0.636053 2.230088e-02 1.653700e-14 1 
    0.636328 2.131329e-02 1.579100e-14 1 
    0.636603 2.317161e-02 1.715300e-14 1 
    0.636878 2.287390e-02 1.691800e-14 1 
    0.637153 2.251340e-02 1.663700e-14 1 
    0.637428 2.247461e-02 1.659400e-14 1 
    0.637703 2.331411e-02 1.719900e-14 1 
    0.637978 2.305474e-02 1.699300e-14 1 
    0.638253 2.296055e-02 1.690900e-14 1 
    0.638528 2.277784e-02 1.676000e-14 1 
    0.638803 2.227922e-02 1.637900e-14 1 
    0.639078 2.408048e-02 1.768800e-14 1 
    0.639353 2.391045e-02 1.754800e-14 1 
    0.639628 2.460608e-02 1.804300e-14 1 
    0.639903 2.547349e-02 1.866300e-14 1 
    0.640178 2.455825e-02 1.797700e-14 1 
    0.640453 2.441255e-02 1.785500e-14 1 
    0.640728 2.496721e-02 1.824500e-14 1 
    0.641003 2.489140e-02 1.817400e-14 1 
    0.641278 2.562146e-02 1.869100e-14 1 
    0.641553 2.541021e-02 1.852100e-14 1 
    0.641828 2.555695e-02 1.861200e-14 1 
    0.642103 2.413032e-02 1.755800e-14 1 
    0.642378 2.361593e-02 1.716900e-14 1 
    0.642653 2.244120e-02 1.630100e-14 1 
    0.642928 2.316725e-02 1.681400e-14 1 
    0.643203 2.297194e-02 1.665800e-14 1 
    0.643478 2.429865e-02 1.760500e-14 1 
    0.643753 2.298362e-02 1.663800e-14 1 
    0.644028 2.400839e-02 1.736500e-14 1 
    0.644303 2.382548e-02 1.721800e-14 1 
    0.644578 2.449121e-02 1.768400e-14 1 
    0.644853 2.416419e-02 1.743300e-14 1 
    0.645128 2.394342e-02 1.725900e-14 1 
    0.645403 2.406797e-02 1.733400e-14 1 
    0.645678 2.353818e-02 1.693800e-14 1 
    0.645953 2.364864e-02 1.700300e-14 1 
    0.646228 2.463485e-02 1.769700e-14 1 
    0.646503 2.437718e-02 1.749700e-14 1 
    0.646778 2.443836e-02 1.752600e-14 1 
    0.647053 2.353805e-02 1.686600e-14 1 
    0.647328 2.256915e-02 1.615800e-14 1 
    0.647603 2.270016e-02 1.623800e-14 1 
    0.647878 2.413959e-02 1.725300e-14 1 
    0.648153 2.422590e-02 1.730000e-14 1 
    0.648428 2.464450e-02 1.758400e-14 1 
    0.648703 2.529943e-02 1.803600e-14 1 
    0.648978 2.537283e-02 1.807300e-14 1 
    0.649253 2.544633e-02 1.811000e-14 1 
    0.649528 2.623431e-02 1.865500e-14 1 
    0.649803 2.553168e-02 1.814000e-14 1 
    0.650078 2.513915e-02 1.784600e-14 1 
    0.650353 2.642648e-02 1.874400e-14 1 
    0.650628 2.444513e-02 1.732400e-14 1 
    0.650903 2.419465e-02 1.713200e-14 1 
    0.651178 2.460097e-02 1.740500e-14 1 
    0.651453 2.515365e-02 1.778100e-14 1 
    0.651728 2.559256e-02 1.807600e-14 1 
    0.652003 2.525849e-02 1.782500e-14 1 
    0.652278 2.430690e-02 1.713900e-14 1 
    0.652553 2.459000e-02 1.732400e-14 1 
    0.652828 2.461499e-02 1.732700e-14 1 
    0.653103 2.557555e-02 1.798800e-14 1 
    0.653378 2.525272e-02 1.774600e-14 1 
    0.653653 2.500908e-02 1.756000e-14 1 
    0.653928 2.533089e-02 1.777100e-14 1 
    0.654203 2.541925e-02 1.781800e-14 1 
    0.654478 2.523074e-02 1.767100e-14 1 
    0.654753 2.387010e-02 1.670400e-14 1 
    0.655028 2.423483e-02 1.694500e-14 1 
    0.655303 2.409630e-02 1.683400e-14 1 
    0.655578 2.622390e-02 1.830500e-14 1 
    0.655853 2.487948e-02 1.735200e-14 1 
    0.656128 2.569534e-02 1.790600e-14 1 
    0.656403 2.484654e-02 1.730000e-14 1 
    0.656678 2.622429e-02 1.824400e-14 1 
    0.656953 2.550536e-02 1.772900e-14 1 
    0.657228 2.637766e-02 1.832000e-14 1 
    0.657503 2.620520e-02 1.818500e-14 1 
    0.657778 2.551466e-02 1.769100e-14 1 
    0.658053 2.352961e-02 1.630100e-14 1 
    0.658328 2.384110e-02 1.650300e-14 1 
    0.658603 2.538785e-02 1.755900e-14 1 
    0.658878 2.595605e-02 1.793700e-14 1 
    0.659153 2.528399e-02 1.745800e-14 1 
    0.659428 2.604144e-02 1.796600e-14 1 
    0.659703 2.603995e-02 1.795000e-14 1 
    0.659978 2.547364e-02 1.754500e-14 1 
    0.660253 2.680122e-02 1.844400e-14 1 
    0.660528 2.524561e-02 1.735900e-14 1 
    0.660803 2.403525e-02 1.651300e-14 1 
    0.661078 2.293648e-02 1.574500e-14 1 
    0.661353 2.407382e-02 1.651200e-14 1 
    0.661628 2.484240e-02 1.702500e-14 1 
    0.661903 2.513031e-02 1.720800e-14 1 
    0.662178 2.532659e-02 1.732800e-14 1 
    0.662453 2.699037e-02 1.845100e-14 1 
    0.662728 2.530133e-02 1.728200e-14 1 
    0.663003 2.537655e-02 1.731900e-14 1 
    0.663278 2.543280e-02 1.734300e-14 1 
    0.663553 2.412124e-02 1.643500e-14 1 
    0.663828 2.506370e-02 1.706300e-14 1 
    0.664103 2.591803e-02 1.763000e-14 1 
    0.664378 2.587770e-02 1.758800e-14 1 
    0.664653 2.589913e-02 1.758800e-14 1 
    0.664928 2.671639e-02 1.812800e-14 1 
    0.665203 2.668097e-02 1.808900e-14 1 
    0.665478 2.742342e-02 1.857700e-14 1 
    0.665753 2.792330e-02 1.890000e-14 1 
    0.666028 2.951965e-02 1.996400e-14 1 
    0.666303 3.056810e-02 2.065600e-14 1 
    0.666578 3.061556e-02 2.067100e-14 1 
    0.666853 3.037252e-02 2.049000e-14 1 
    0.667128 2.989170e-02 2.014900e-14 1 
    0.667403 3.024299e-02 2.036900e-14 1 
    0.667678 3.122786e-02 2.101500e-14 1 
    0.667953 3.266792e-02 2.196600e-14 1 
    0.668228 3.206671e-02 2.154400e-14 1 
    0.668503 3.043512e-02 2.043100e-14 1 
    0.668778 3.018734e-02 2.024800e-14 1 
    0.669053 2.974066e-02 1.993200e-14 1 
    0.669328 3.170197e-02 2.122900e-14 1 
    0.669603 3.510274e-02 2.348700e-14 1 
    0.669878 3.850159e-02 2.574000e-14 1 
    0.670153 4.028771e-02 2.691200e-14 1 
    0.670428 4.002863e-02 2.671700e-14 1 
    0.670703 3.714649e-02 2.477300e-14 1 
    0.670978 3.318058e-02 2.211000e-14 1 
    0.671253 3.042470e-02 2.025700e-14 1 
    0.671528 2.771838e-02 1.844000e-14 1 
    0.671803 2.678730e-02 1.780600e-14 1 
    0.672078 2.759066e-02 1.832500e-14 1 
    0.672353 2.623597e-02 1.741100e-14 1 
    0.672628 2.637658e-02 1.749000e-14 1 
    0.672903 2.558009e-02 1.694800e-14 1 
    0.673178 2.545297e-02 1.685000e-14 1 
    0.673453 2.681171e-02 1.773500e-14 1 
    0.673728 2.521164e-02 1.666300e-14 1 
    0.674003 2.618924e-02 1.729500e-14 1 
    0.674278 2.579386e-02 1.702000e-14 1 
    0.674553 2.577850e-02 1.699600e-14 1 
    0.674828 2.582381e-02 1.701200e-14 1 
    0.675103 2.653762e-02 1.746800e-14 1 
    0.675378 2.592522e-02 1.705100e-14 1 
    0.675653 2.525701e-02 1.659800e-14 1 
    0.675928 2.518467e-02 1.653700e-14 1 
    0.676203 2.646566e-02 1.736400e-14 1 
    0.676478 2.588160e-02 1.696700e-14 1 
    0.676753 2.629805e-02 1.722600e-14 1 
    0.677028 2.653180e-02 1.736500e-14 1 
    0.677303 2.642950e-02 1.728400e-14 1 
    0.677578 2.496191e-02 1.631100e-14 1 
    0.677853 2.720302e-02 1.776100e-14 1 
    0.678128 2.677904e-02 1.747000e-14 1 
    0.678403 2.624081e-02 1.710500e-14 1 
    0.678678 2.520731e-02 1.641800e-14 1 
    0.678953 2.466228e-02 1.605000e-14 1 
    0.679228 2.731196e-02 1.776000e-14 1 
    0.679503 2.745567e-02 1.783900e-14 1 
    0.679778 2.701426e-02 1.753800e-14 1 
    0.680053 2.635628e-02 1.709700e-14 1 
    0.680328 2.672782e-02 1.732400e-14 1 
    0.680603 2.610093e-02 1.690400e-14 1 
    0.680878 2.710639e-02 1.754100e-14 1 
    0.681153 2.535283e-02 1.639300e-14 1 
    0.681428 2.535783e-02 1.638300e-14 1 
    0.681703 2.508863e-02 1.619600e-14 1 
    0.681978 2.619099e-02 1.689400e-14 1 
    0.682253 2.652708e-02 1.709700e-14 1 
    0.682528 2.779849e-02 1.790200e-14 1 
    0.682803 2.997949e-02 1.929100e-14 1 
    0.683912 2.731888e-02 1.752200e-14 0 
    0.685488 2.732119e-02 1.744300e-14 0 
    0.687068 2.738749e-02 1.740500e-14 0 
    0.688652 2.802926e-02 1.773100e-14 0 
    0.690240 2.777594e-02 1.749000e-14 0 
    0.691831 2.803656e-02 1.757300e-14 0 
    0.693426 2.816919e-02 1.757500e-14 0 
    0.695024 2.830239e-02 1.757700e-14 0 
    0.696626 2.876624e-02 1.778300e-14 0 
    0.698233 2.824420e-02 1.738000e-14 0 
    0.699842 2.824718e-02 1.730200e-14 0 
    0.701455 2.825124e-02 1.722500e-14 0 
    0.703072 2.871448e-02 1.742700e-14 0 
    0.704693 2.898278e-02 1.750900e-14 0 
    0.706318 2.952569e-02 1.775500e-14 0 
    0.707946 2.966529e-02 1.775700e-14 0 
    0.709578 3.008250e-02 1.792400e-14 0 
    0.711214 2.827227e-02 1.676800e-14 0 
    0.712853 3.029815e-02 1.788700e-14 0 
    0.714496 3.023208e-02 1.776600e-14 0 
    0.716143 3.016647e-02 1.764600e-14 0 
    0.717794 3.159207e-02 1.839500e-14 0 
    0.719449 3.003500e-02 1.740800e-14 0 
    0.721108 3.095194e-02 1.785700e-14 0 
    0.722770 2.976790e-02 1.709500e-14 0 
    0.724436 3.018518e-02 1.725500e-14 0 
    0.726106 3.039832e-02 1.729700e-14 0 
    0.727780 3.040270e-02 1.722000e-14 0 
    0.729457 3.075936e-02 1.734200e-14 0 
    0.731139 3.055035e-02 1.714500e-14 0 
    0.732825 2.965314e-02 1.656500e-14 0 
    0.734514 2.931882e-02 1.630300e-14 0 
    0.736207 3.098799e-02 1.715200e-14 0 
    0.737904 3.135063e-02 1.727300e-14 0 
    0.739605 3.275711e-02 1.796500e-14 0 
    0.741310 3.186785e-02 1.739700e-14 0 
    0.743019 3.086112e-02 1.677000e-14 0 
    0.744732 3.246964e-02 1.756300e-14 0 
    0.746449 3.284984e-02 1.768700e-14 0 
    0.748170 3.448112e-02 1.848000e-14 0 
    0.749894 3.339181e-02 1.781400e-14 0 
    0.751623 3.433311e-02 1.823200e-14 0 
    0.753356 3.425892e-02 1.810900e-14 0 
    0.755092 3.394756e-02 1.786200e-14 0 
    0.756833 3.547136e-02 1.857800e-14 0 
    0.758578 3.474894e-02 1.811600e-14 0 
    0.760326 3.459324e-02 1.795200e-14 0 
    0.762079 3.573056e-02 1.845700e-14 0 
    0.763836 3.436494e-02 1.767000e-14 0 
    0.765597 3.574079e-02 1.829300e-14 0 
    0.767361 3.624328e-02 1.846500e-14 0 
    0.769130 3.658410e-02 1.855300e-14 0 
    0.770904 3.701257e-02 1.868400e-14 0 
    0.772681 3.718738e-02 1.868600e-14 0 
    0.774462 3.601347e-02 1.801300e-14 0 
    0.776247 3.685655e-02 1.835000e-14 0 
    0.778037 3.643955e-02 1.805900e-14 0 
    0.779830 3.669688e-02 1.810300e-14 0 
    0.781628 3.355091e-02 1.647500e-14 0 
    0.783430 3.595421e-02 1.757400e-14 0 
    0.785236 3.554879e-02 1.729600e-14 0 
    0.787046 3.646445e-02 1.766000e-14 0 
    0.788860 3.697707e-02 1.782600e-14 0 
    0.790679 3.672893e-02 1.762500e-14 0 
    0.792501 3.639595e-02 1.738500e-14 0 
    0.794328 3.742205e-02 1.779300e-14 0 
    0.796159 3.742575e-02 1.771300e-14 0 
    0.797995 3.769196e-02 1.775700e-14 0 
    0.799834 3.848642e-02 1.804800e-14 0 
    0.801678 3.866837e-02 1.805000e-14 0 
    0.803526 3.867467e-02 1.797000e-14 0 
    0.805378 3.859154e-02 1.784900e-14 0 
    0.807235 3.797907e-02 1.748500e-14 0 
    0.809096 3.746265e-02 1.716800e-14 0 
    0.810961 3.842913e-02 1.753000e-14 0 
    0.812831 3.951172e-02 1.794100e-14 0 
    0.814704 3.897497e-02 1.761600e-14 0 
    0.816582 3.988834e-02 1.794600e-14 0 
    0.818465 4.035610e-02 1.807300e-14 0 
    0.820352 4.026872e-02 1.795100e-14 0 
    0.822243 4.046134e-02 1.795400e-14 0 
    0.824138 4.065485e-02 1.795700e-14 0 
    0.826038 4.132016e-02 1.816700e-14 0 
    0.827942 4.219178e-02 1.846500e-14 0 
    0.829851 4.123652e-02 1.796400e-14 0 
    0.831764 3.938826e-02 1.708000e-14 0 
    0.833681 4.003338e-02 1.728000e-14 0 
    0.835603 3.876819e-02 1.665700e-14 0 
    0.837529 4.271159e-02 1.826700e-14 0 
    0.839460 4.252118e-02 1.810200e-14 0 
    0.841395 4.223603e-02 1.789800e-14 0 
    0.843335 4.127885e-02 1.741200e-14 0 
    0.845279 4.195762e-02 1.761700e-14 0 
    0.847227 4.274221e-02 1.786400e-14 0 
    0.849180 4.167996e-02 1.734000e-14 0 
    0.851138 4.395394e-02 1.820200e-14 0 
    0.853100 4.406220e-02 1.816300e-14 0 
    0.855067 4.160184e-02 1.707000e-14 0 
    0.857038 4.448218e-02 1.816800e-14 0 
    0.859014 4.397914e-02 1.788000e-14 0 
    0.860994 4.278845e-02 1.731600e-14 0 
    0.862979 4.162808e-02 1.676900e-14 0 
    0.864968 4.471560e-02 1.793000e-14 0 
    0.866962 4.431069e-02 1.768600e-14 0 
    0.868960 4.401176e-02 1.748600e-14 0 
    0.870964 3.653060e-02 1.444700e-14 0 
    0.872971 4.536399e-02 1.785800e-14 0 
    0.874984 4.495585e-02 1.761600e-14 0 
    0.877001 4.465317e-02 1.741700e-14 0 
    0.879023 4.549034e-02 1.766200e-14 0 
    0.881049 4.539236e-02 1.754300e-14 0 
    0.883080 3.459847e-02 1.331000e-14 0 
    0.885116 4.467903e-02 1.710900e-14 0 
    0.887156 4.530760e-02 1.727000e-14 0 
    0.889201 4.669220e-02 1.771600e-14 0 
    0.891251 4.584598e-02 1.731500e-14 0 
    0.893305 4.574899e-02 1.719900e-14 0 
    0.895365 4.714672e-02 1.764300e-14 0 
    0.897429 4.251326e-02 1.583600e-14 0 
    0.899498 4.556024e-02 1.689300e-14 0 
    0.901571 4.684341e-02 1.728900e-14 0 
    0.903650 4.372260e-02 1.606300e-14 0 
    0.905733 4.675188e-02 1.709700e-14 0 
    0.907820 4.762689e-02 1.733700e-14 0 
    0.909913 4.654964e-02 1.686700e-14 0 
    0.912011 4.677287e-02 1.687000e-14 0 
    0.914113 4.645672e-02 1.667900e-14 0 
    0.916220 4.103276e-02 1.466400e-14 0 
    0.918333 4.417673e-02 1.571500e-14 0 
    0.920450 4.946118e-02 1.751400e-14 0 
    0.922571 5.085545e-02 1.792500e-14 0 
    0.924698 4.703435e-02 1.650200e-14 0 
    0.926830 4.869463e-02 1.700600e-14 0 
    0.928966 5.111418e-02 1.776900e-14 0 
    0.931108 4.609060e-02 1.594900e-14 0 
    0.933254 4.546718e-02 1.566100e-14 0 
    0.935406 4.794623e-02 1.643900e-14 0 
    0.937562 5.056138e-02 1.725600e-14 0 
    0.939723 5.010593e-02 1.702200e-14 0 
    0.941890 4.954180e-02 1.675300e-14 0 
    0.944061 5.058742e-02 1.702800e-14 0 
    0.946237 5.048065e-02 1.691400e-14 0 
    0.948418 5.202089e-02 1.735000e-14 0 
    0.950605 5.227012e-02 1.735300e-14 0 
    0.952796 5.239938e-02 1.731600e-14 0 
    0.954993 5.216706e-02 1.716000e-14 0 
    0.957194 5.205659e-02 1.704500e-14 0 
    0.959401 5.303327e-02 1.728500e-14 0 
    0.961612 5.292045e-02 1.716900e-14 0 
    0.963829 5.354252e-02 1.729100e-14 0 
    0.966051 5.367458e-02 1.725400e-14 0 
    0.968278 5.343480e-02 1.709800e-14 0 
    0.970510 5.344596e-02 1.702300e-14 0 
    0.972747 5.199570e-02 1.648500e-14 0 
    0.974990 5.370922e-02 1.695000e-14 0 
    0.977237 5.459054e-02 1.714900e-14 0 
    0.979490 5.447477e-02 1.703400e-14 0 
    0.981748 5.423467e-02 1.688100e-14 0 
    0.984011 5.449467e-02 1.688400e-14 0 
    0.986279 5.500880e-02 1.696500e-14 0 
    0.988553 5.489141e-02 1.685100e-14 0 
    0.990832 5.489936e-02 1.677600e-14 0 
    0.993116 5.490946e-02 1.670200e-14 0 
    0.995405 5.529828e-02 1.674300e-14 0 
    0.997700 5.505586e-02 1.659300e-14 0 
    1.000000 5.570000e-02 1.671000e-14 0 
    1.002305 5.596712e-02 1.671300e-14 0 
    1.004615 5.597645e-02 1.663900e-14 0 
    1.006931 5.611654e-02 1.660400e-14 0 
    1.009253 5.612780e-02 1.653100e-14 0 
    1.011580 5.652676e-02 1.657200e-14 0 
    1.013912 5.666433e-02 1.653600e-14 0 
    1.016249 5.667454e-02 1.646300e-14 0 
    1.020939 5.656651e-02 1.628100e-14 0 
    1.025652 5.632555e-02 1.606300e-14 0 
    1.030386 5.739171e-02 1.621700e-14 0 
    1.035142 5.754414e-02 1.611100e-14 0 
    1.039921 5.796495e-02 1.608000e-14 0 
    1.047129 5.866894e-02 1.605200e-14 0 
    1.049542 5.867895e-02 1.598100e-14 0 
    1.069054 5.930767e-02 1.556800e-14 0 
    1.088931 5.958497e-02 1.507500e-14 0 
    1.109175 5.958604e-02 1.453000e-14 0 
    1.129796 6.055427e-02 1.423200e-14 0 
    1.150800 6.111391e-02 1.384400e-14 0 
    1.169499 6.239575e-02 1.368600e-14 0 
    1.191243 6.311505e-02 1.334300e-14 0 
    1.210599 6.355602e-02 1.301000e-14 0 
    1.233105 6.443575e-02 1.271300e-14 0 
    1.253141 6.548411e-02 1.251000e-14 0 
    1.273503 6.624553e-02 1.225400e-14 0 
    1.294196 6.700890e-02 1.200200e-14 0 
    1.312200 6.731933e-02 1.172900e-14 0 
    1.333521 6.841037e-02 1.154100e-14 0 
    1.355189 6.920684e-02 1.130500e-14 0 
    1.374042 7.017035e-02 1.115000e-14 0 
    1.396368 7.130578e-02 1.097100e-14 0 
    1.415794 7.163986e-02 1.072200e-14 0 
    1.435490 7.197099e-02 1.047800e-14 0 
    1.455459 7.280100e-02 1.031000e-14 0 
    1.475707 7.466646e-02 1.028600e-14 0 
    1.496236 7.518376e-02 1.007500e-14 0 
    1.517051 7.729015e-02 1.007500e-14 0 
    1.538154 7.927401e-02 1.005200e-14 0 
    1.555965 8.149984e-02 1.009900e-14 0 
    1.577611 8.358410e-02 1.007500e-14 0 
    1.599558 8.455530e-02 9.914300e-15 0 
    1.618080 8.436047e-02 9.666300e-15 0 
    1.640590 8.692404e-02 9.688600e-15 0 
    1.659586 8.854009e-02 9.644100e-15 0 
    1.678804 8.874429e-02 9.446300e-15 0 
    1.702158 8.997888e-02 9.316700e-15 0 
    1.721869 8.977216e-02 9.083700e-15 0 
    1.741808 8.997926e-02 8.897400e-15 0 
    1.761975 8.853987e-02 8.555800e-15 0 
    1.782379 8.854055e-02 8.361100e-15 0 
    1.803018 8.793072e-02 8.114500e-15 0 
    1.823896 8.752720e-02 7.893400e-15 0 
    1.840771 8.573201e-02 7.590400e-15 0 
    1.862087 8.592947e-02 7.434700e-15 0 
    1.883649 8.573119e-02 7.248700e-15 0 
    1.905462 8.436129e-02 6.970500e-15 0 
    1.923091 8.416667e-02 6.827500e-15 0 
    1.945360 8.436115e-02 6.687500e-15 0 
    1.963361 8.320299e-02 6.475300e-15 0 
    1.986094 8.206151e-02 6.241100e-15 0 
    2.004472 8.168408e-02 6.099000e-15 0 
    2.027683 8.149675e-02 5.946500e-15 0 
    2.046444 8.149718e-02 5.838000e-15 0 
    2.065380 8.056380e-02 5.665800e-15 0 
    2.089297 8.112217e-02 5.575200e-15 0 
    2.108628 8.037894e-02 5.423300e-15 0 
    2.128139 8.000889e-02 5.299800e-15 0 
    2.147829 8.000927e-02 5.203100e-15 0 
    2.167704 7.964233e-02 5.084700e-15 0 
    2.187762 7.927552e-02 4.968900e-15 0 
    2.208004 7.818814e-02 4.811300e-15 0 
    2.228435 7.836888e-02 4.734400e-15 0 
    2.249056 7.782966e-02 4.616000e-15 0 
    2.269865 7.729290e-02 4.500500e-15 0 
    2.290868 7.711523e-02 4.408200e-15 0 
    2.312064 7.593125e-02 4.261300e-15 0 
    2.333458 6.962192e-02 3.835900e-15 0 
    2.349632 6.928384e-02 3.764900e-15 0 
    2.371374 6.217997e-02 3.317200e-15 0 
    2.393317 5.936082e-02 3.109000e-15 0 
    2.415460 6.013953e-02 3.092300e-15 0 
    2.432205 5.591445e-02 2.835600e-15 0 
    2.454708 5.468024e-02 2.722400e-15 0 
    2.471725 5.431686e-02 2.667200e-15 0 
    2.494594 5.126921e-02 2.471600e-15 0 
    2.511887 5.101082e-02 2.425400e-15 0 
    2.535128 4.510166e-02 2.105300e-15 0 
    2.552702 4.473649e-02 2.059600e-15 0 
    2.554510 4.189602e-02 1.926100e-15 2 
    2.564180 4.174918e-02 1.904900e-15 2 
    2.573860 4.286437e-02 1.941100e-15 2 
    2.583540 4.371025e-02 1.964600e-15 2 
    2.593210 4.395289e-02 1.960800e-15 2 
    2.602890 4.476944e-02 1.982400e-15 2 
    2.612570 4.567184e-02 2.007400e-15 2 
    2.622240 4.466514e-02 1.948700e-15 2 
    2.631920 4.542728e-02 1.967400e-15 2 
    2.641590 4.660372e-02 2.003600e-15 2 
    2.651270 4.674908e-02 1.995200e-15 2 
    2.660950 4.686921e-02 1.985800e-15 2 
    2.670620 4.881999e-02 2.053500e-15 2 
    2.680300 4.925356e-02 2.056800e-15 2 
    2.689980 4.794328e-02 1.987700e-15 2 
    2.699650 4.694758e-02 1.932500e-15 2 
    2.709330 4.847401e-02 1.981100e-15 2 
    2.719000 4.691327e-02 1.903700e-15 2 
    2.728680 4.751594e-02 1.914500e-15 2 
    2.738360 4.729627e-02 1.892200e-15 2 
    2.748030 4.727345e-02 1.878000e-15 2 
    2.757710 4.828645e-02 1.904800e-15 2 
    2.767390 4.768915e-02 1.868100e-15 2 
    2.777060 4.633921e-02 1.802600e-15 2 
    2.786740 4.776041e-02 1.845000e-15 2 
    2.796410 4.665879e-02 1.790000e-15 2 
    2.806090 4.553353e-02 1.734800e-15 2 
    2.815770 4.486244e-02 1.697500e-15 2 
    2.825440 4.468680e-02 1.679300e-15 2 
    2.835120 4.329216e-02 1.615800e-15 2 
    2.844790 4.489363e-02 1.664200e-15 2 
    2.854470 4.519152e-02 1.663900e-15 2 
    2.864150 4.362271e-02 1.595300e-15 2 
    2.873820 4.354612e-02 1.581800e-15 2 
    2.883500 4.183339e-02 1.509400e-15 2 
    2.893180 4.137255e-02 1.482800e-15 2 
    2.902850 4.064962e-02 1.447200e-15 2 
    2.912530 3.924441e-02 1.387900e-15 2 
    2.922200 3.946273e-02 1.386400e-15 2 
    2.931880 3.897677e-02 1.360300e-15 2 
    2.941560 3.808375e-02 1.320400e-15 2 
    2.951230 3.682196e-02 1.268300e-15 2 
    2.960910 3.727723e-02 1.275600e-15 2 
    2.970590 3.667423e-02 1.246800e-15 2 
    2.980260 3.736044e-02 1.261900e-15 2 
    2.989940 3.698073e-02 1.241000e-15 2 
    2.999610 3.659349e-02 1.220100e-15 2 
    3.009290 3.634405e-02 1.204000e-15 2 
    3.018970 3.608304e-02 1.187700e-15 2 
    3.028640 3.522913e-02 1.152200e-15 2 
    3.038320 3.528237e-02 1.146600e-15 2 
    3.048000 3.593180e-02 1.160300e-15 2 
    3.057670 3.651854e-02 1.171800e-15 2 
    3.067350 3.410317e-02 1.087400e-15 2 
    3.077020 3.517697e-02 1.114600e-15 2 
    3.086700 3.511599e-02 1.105700e-15 2 
    3.096380 3.520875e-02 1.101700e-15 2 
    3.106050 3.585993e-02 1.115100e-15 2 
    3.115730 3.553693e-02 1.098200e-15 2 
    3.125410 3.593390e-02 1.103600e-15 2 
    3.135080 3.528186e-02 1.076900e-15 2 
    3.144760 3.651209e-02 1.107600e-15 2 
    3.154440 3.691633e-02 1.113000e-15 2 
    3.164110 3.596164e-02 1.077600e-15 2 
    3.173790 3.671588e-02 1.093500e-15 2 
    3.183460 3.693657e-02 1.093400e-15 2 
    3.193140 3.687266e-02 1.084900e-15 2 
    3.202820 3.675461e-02 1.074900e-15 2 
    3.212490 3.873819e-02 1.126100e-15 2 
    3.222170 3.771226e-02 1.089700e-15 2 
    3.231850 3.810631e-02 1.094500e-15 2 
    3.241520 3.882854e-02 1.108600e-15 2 
    3.251200 4.027285e-02 1.143000e-15 2 
    3.260870 4.054822e-02 1.144000e-15 2 
    3.270550 4.013683e-02 1.125700e-15 2 
    3.280230 4.338396e-02 1.209600e-15 2 
    3.289900 4.544042e-02 1.259500e-15 2 
    3.299580 4.852075e-02 1.337000e-15 2 
    3.309260 5.114212e-02 1.401000e-15 2 
    3.318930 5.366286e-02 1.461500e-15 2 
    3.328610 6.206448e-02 1.680500e-15 2 
    3.338280 6.535280e-02 1.759300e-15 2 
    3.347960 6.670379e-02 1.785300e-15 2 
    3.357640 6.979576e-02 1.857300e-15 2 
    3.367310 6.511104e-02 1.722700e-15 2 
    3.376990 5.907303e-02 1.554000e-15 2 
    3.386670 5.445352e-02 1.424300e-15 2 
    3.396340 4.876666e-02 1.268300e-15 2 
    3.406020 4.697233e-02 1.214700e-15 2 
    3.415690 4.392990e-02 1.129600e-15 2 
    3.425370 4.137894e-02 1.058000e-15 2 
    3.435050 4.175474e-02 1.061600e-15 2 
    3.444720 4.237382e-02 1.071300e-15 2 
    3.454400 4.373002e-02 1.099400e-15 2 
    3.464080 4.383545e-02 1.095900e-15 2 
    3.473750 4.507404e-02 1.120600e-15 2 
    3.483430 4.505865e-02 1.114000e-15 2 
    3.493100 4.505699e-02 1.107800e-15 2 
    3.502780 4.566287e-02 1.116500e-15 2 
    3.512460 4.533575e-02 1.102400e-15 2 
    3.522130 4.541617e-02 1.098300e-15 2 
    3.531810 4.419426e-02 1.062900e-15 2 
    3.541490 4.433232e-02 1.060400e-15 2 
    3.551160 4.402409e-02 1.047300e-15 2 
    3.560840 4.235825e-02 1.002200e-15 2 
    3.570510 4.336629e-02 1.020500e-15 2 
    3.580190 4.332830e-02 1.014100e-15 2 
    3.589870 4.302596e-02 1.001600e-15 2 
    3.599540 4.328397e-02 1.002200e-15 2 
    3.609220 4.269294e-02 9.832200e-16 2 
    3.618900 4.187542e-02 9.592400e-16 2 
    3.628570 4.299702e-02 9.796900e-16 2 
    3.638250 4.319277e-02 9.789200e-16 2 
    3.647920 4.339029e-02 9.781900e-16 2 
    3.657600 4.465143e-02 1.001300e-15 2 
    3.667280 4.484774e-02 1.000400e-15 2 
    3.676950 4.496649e-02 9.977800e-16 2 
    3.686630 4.543099e-02 1.002800e-15 2 
    3.696310 4.481869e-02 9.841100e-16 2 
    3.705980 4.368602e-02 9.542400e-16 2 
    3.715660 4.266508e-02 9.270899e-16 2 
    3.725330 4.259647e-02 9.208000e-16 2 
    3.735010 4.266095e-02 9.174200e-16 2 
    3.744690 4.237006e-02 9.064600e-16 2 
    3.754360 4.293968e-02 9.139200e-16 2 
    3.764040 4.314249e-02 9.135200e-16 2 
    3.773720 4.254155e-02 8.961800e-16 2 
    3.783390 4.388016e-02 9.196600e-16 2 
    3.793070 4.433902e-02 9.245400e-16 2 
    3.802740 4.437740e-02 9.206400e-16 2 
    3.812420 4.591754e-02 9.477600e-16 2 
    3.822100 4.585494e-02 9.416800e-16 2 
    3.831770 4.464398e-02 9.121900e-16 2 
    3.841450 4.518808e-02 9.186600e-16 2 
    3.851130 4.594558e-02 9.293699e-16 2 
    3.860800 4.515307e-02 9.087700e-16 2 
    3.870480 4.651781e-02 9.315600e-16 2 
    3.880150 4.818734e-02 9.601900e-16 2 
    3.889830 4.623815e-02 9.167700e-16 2 
    3.899510 4.766529e-02 9.403800e-16 2 
    3.909180 4.819946e-02 9.462200e-16 2 
    3.918860 4.827926e-02 9.431100e-16 2 
    3.928540 4.571586e-02 8.886401e-16 2 
    3.938210 4.729104e-02 9.147499e-16 2 
    3.947890 4.554285e-02 8.766200e-16 2 
    3.957560 4.806911e-02 9.207300e-16 2 
    3.967240 4.649351e-02 8.862100e-16 2 
    3.976920 4.638116e-02 8.797700e-16 2 
    3.986590 4.710231e-02 8.891200e-16 2 
    3.996270 4.453176e-02 8.365300e-16 2 
    4.005950 4.721856e-02 8.827200e-16 2 
    4.015620 4.546985e-02 8.459400e-16 2 
    4.025300 4.679816e-02 8.664700e-16 2 
    4.034970 4.819116e-02 8.879900e-16 2 
    4.044650 4.799133e-02 8.800800e-16 2 
    4.054330 4.771614e-02 8.708600e-16 2 
    4.064000 4.771335e-02 8.666700e-16 2 
    4.073680 4.852008e-02 8.771400e-16 2 
    4.083360 4.806954e-02 8.648800e-16 2 
    4.093030 4.900780e-02 8.776000e-16 2 
    4.102710 4.910635e-02 8.752200e-16 2 
    4.112380 5.260826e-02 9.332300e-16 2 
    4.122060 5.364349e-02 9.471300e-16 2 
    4.131740 5.369371e-02 9.435800e-16 2 
    4.141410 5.130862e-02 8.974600e-16 2 
    4.151090 4.857688e-02 8.457200e-16 2 
    4.160770 4.685206e-02 8.119000e-16 2 
    4.170440 4.621959e-02 7.972300e-16 2 
    4.180120 4.526369e-02 7.771300e-16 2 
    4.189790 4.487006e-02 7.668200e-16 2 
    4.199470 4.683472e-02 7.967100e-16 2 
    4.209150 4.430712e-02 7.502500e-16 2 
    4.218820 4.620120e-02 7.787400e-16 2 
    4.228500 4.652908e-02 7.806800e-16 2 
    4.238180 4.772130e-02 7.970300e-16 2 
    4.247850 5.050700e-02 8.397200e-16 2 
    4.257530 4.889036e-02 8.091500e-16 2 
    4.267200 5.034120e-02 8.293900e-16 2 
    4.276880 4.877422e-02 7.999400e-16 2 
    4.286560 4.750936e-02 7.756800e-16 2 
    4.296230 4.609599e-02 7.492200e-16 2 
    4.305910 4.461055e-02 7.218200e-16 2 
    4.315590 4.084250e-02 6.578900e-16 2 
    4.325260 3.986524e-02 6.392800e-16 2 
    4.334940 3.945443e-02 6.298700e-16 2 
    4.344610 3.572907e-02 5.678600e-16 2 
    4.354290 3.853272e-02 6.097000e-16 2 
    4.363970 4.087210e-02 6.438500e-16 2 
    4.373640 4.290573e-02 6.729000e-16 2 
    4.383320 4.544184e-02 7.095300e-16 2 
    4.393000 4.790840e-02 7.447500e-16 2 
    4.402670 4.813570e-02 7.450000e-16 2 
    4.412350 4.821716e-02 7.429900e-16 2 
    4.422020 4.776976e-02 7.328800e-16 2 
    4.431700 4.479090e-02 6.841800e-16 2 
    4.441380 4.757811e-02 7.235900e-16 2 
    4.451050 4.832506e-02 7.317600e-16 2 
    4.460730 4.699669e-02 7.085600e-16 2 
    4.470410 4.626494e-02 6.945100e-16 2 
    4.480080 4.899627e-02 7.323400e-16 2 
    4.489760 4.891931e-02 7.280400e-16 2 
    4.499430 4.637965e-02 6.872800e-16 2 
    4.509110 4.686746e-02 6.915300e-16 2 
    4.518790 4.580562e-02 6.729700e-16 2 
    4.528460 4.281646e-02 6.263700e-16 2 
    4.538140 4.104458e-02 5.978900e-16 2 
    4.547820 4.247944e-02 6.161600e-16 2 
    4.557490 3.937781e-02 5.687500e-16 2 
    4.567170 3.804550e-02 5.471800e-16 2 
    4.576840 4.007249e-02 5.739000e-16 2 
    4.586520 3.980323e-02 5.676400e-16 2 
    4.596200 3.770681e-02 5.354800e-16 2 
    4.605870 3.597406e-02 5.087300e-16 2 
    4.615550 3.625609e-02 5.105700e-16 2 
    4.625230 3.428688e-02 4.808200e-16 2 
    4.634900 3.338492e-02 4.662200e-16 2 
    4.644580 3.371435e-02 4.688600e-16 2 
    4.654250 3.418270e-02 4.734000e-16 2 
    4.663930 3.340420e-02 4.607000e-16 2 
    4.673610 3.165944e-02 4.348300e-16 2 
    4.683280 3.218392e-02 4.402100e-16 2 
    4.692960 3.302186e-02 4.498100e-16 2 
    4.702640 3.350322e-02 4.544900e-16 2 
    4.712310 3.368704e-02 4.551100e-16 2 
    4.721990 3.675469e-02 4.945200e-16 2 
    4.731660 3.941514e-02 5.281500e-16 2 
    4.741340 4.127009e-02 5.507500e-16 2 
    4.751020 4.491715e-02 5.969800e-16 2 
    4.760690 5.003493e-02 6.623000e-16 2 
    4.770370 5.518965e-02 7.275700e-16 2 
    4.780050 5.370096e-02 7.050800e-16 2 
    4.789720 5.327303e-02 6.966400e-16 2 
    4.799400 4.946373e-02 6.442200e-16 2 
    4.809070 4.804820e-02 6.232700e-16 2 
    4.818750 4.514037e-02 5.832000e-16 2 
    4.828430 4.510975e-02 5.804700e-16 2 
    4.838100 4.454080e-02 5.708600e-16 2 
    4.847780 4.655464e-02 5.942900e-16 2 
    4.857460 4.645446e-02 5.906500e-16 2 
    4.867130 4.713154e-02 5.968800e-16 2 
    4.876810 4.528891e-02 5.712700e-16 2 
    4.886480 4.435678e-02 5.573000e-16 2 
    4.896160 4.529342e-02 5.668200e-16 2 
    4.905840 4.645544e-02 5.790700e-16 2 
    4.915510 4.578422e-02 5.684600e-16 2 
    4.925190 4.519091e-02 5.588900e-16 2 
    4.934860 4.207441e-02 5.183100e-16 2 
    4.944640 4.215576e-02 5.172600e-16 2 
    4.994086 4.436237e-02 5.336100e-16 0 
    5.044027 4.665592e-02 5.501400e-16 0 
    5.094468 4.903674e-02 5.668200e-16 0 
    5.145412 5.150940e-02 5.836700e-16 0 
    5.196866 5.407785e-02 6.007000e-16 0 
    5.217250 5.511444e-02 6.074400e-16 3 
    5.247490 6.360759e-02 6.929900e-16 3 
    5.277730 7.247724e-02 7.806000e-16 3 
    5.307970 8.707343e-02 9.271500e-16 3 
    5.338210 9.621364e-02 1.012900e-15 3 
    5.368460 9.299563e-02 9.680200e-16 3 
    5.398700 9.498087e-02 9.776400e-16 3 
    5.428940 1.068116e-01 1.087200e-15 3 
    5.459180 9.724604e-02 9.789000e-16 3 
    5.489420 8.989797e-02 8.949900e-16 3 
    5.519670 9.258034e-02 9.116200e-16 3 
    5.549910 9.957612e-02 9.698500e-16 3 
    5.580150 1.155223e-01 1.113000e-15 3 
    5.610390 1.371010e-01 1.306700e-15 3 
    5.640630 1.282319e-01 1.209100e-15 3 
    5.670880 1.235008e-01 1.152100e-15 3 
    5.701120 1.350707e-01 1.246700e-15 3 
    5.731360 1.455954e-01 1.329700e-15 3 
    5.761600 1.515620e-01 1.369700e-15 3 
    5.791840 1.525869e-01 1.364600e-15 3 
    5.822090 1.442871e-01 1.277000e-15 3 
    5.852330 1.268840e-01 1.111400e-15 3 
    5.882570 1.112308e-01 9.643000e-16 3 
    5.912810 9.990781e-02 8.573000e-16 3 
    5.943050 9.301363e-02 7.900400e-16 3 
    5.973300 9.068985e-02 7.625200e-16 3 
    6.003540 8.799053e-02 7.323900e-16 3 
    6.033780 8.494122e-02 6.999400e-16 3 
    6.064020 8.825361e-02 7.200000e-16 3 
    6.094260 9.866119e-02 7.969400e-16 3 
    6.124510 1.086941e-01 8.693300e-16 3 
    6.154750 1.124395e-01 8.904700e-16 3 
    6.184990 1.201931e-01 9.425900e-16 3 
    6.215230 1.412151e-01 1.096700e-15 3 
    6.245470 1.768527e-01 1.360200e-15 3 
    6.275720 2.348376e-01 1.788800e-15 3 
    6.305960 2.844798e-01 2.146200e-15 3 
    6.336200 2.905202e-01 2.170900e-15 3 
    6.366440 2.630903e-01 1.947300e-15 3 
    6.396680 2.288926e-01 1.678200e-15 3 
    6.426930 2.020524e-01 1.467500e-15 3 
    6.457170 1.837223e-01 1.321900e-15 3 
    6.487410 1.713762e-01 1.221600e-15 3 
    6.517650 1.605169e-01 1.133600e-15 3 
    6.547890 1.550784e-01 1.085100e-15 3 
    6.578140 1.525335e-01 1.057500e-15 3 
    6.608380 1.498341e-01 1.029300e-15 3 
    6.638620 1.524573e-01 1.037800e-15 3 
    6.668860 1.558210e-01 1.051100e-15 3 
    6.699100 1.611417e-01 1.077200e-15 3 
    6.729350 1.713250e-01 1.135000e-15 3 
    6.759590 1.784122e-01 1.171400e-15 3 
    6.789830 1.817947e-01 1.183000e-15 3 
    6.820070 1.842394e-01 1.188300e-15 3 
    6.850310 1.817473e-01 1.161900e-15 3 
    6.880560 1.733826e-01 1.098700e-15 3 
    6.910800 1.591765e-01 9.998700e-16 3 
    6.941040 1.496474e-01 9.318400e-16 3 
    6.971280 1.508894e-01 9.314400e-16 3 
    7.001520 1.774734e-01 1.086100e-15 3 
    7.031770 2.154188e-01 1.307000e-15 3 
    7.062010 2.155634e-01 1.296700e-15 3 
    7.092250 2.508294e-01 1.496000e-15 3 
    7.122490 2.784562e-01 1.646700e-15 3 
    7.152730 2.450297e-01 1.436800e-15 3 
    7.182980 2.406056e-01 1.399000e-15 3 
    7.213220 2.496946e-01 1.439700e-15 3 
    7.243460 2.568644e-01 1.468700e-15 3 
    7.273700 2.637576e-01 1.495600e-15 3 
    7.303940 2.636435e-01 1.482600e-15 3 
    7.334190 2.638954e-01 1.471800e-15 3 
    7.364430 2.627858e-01 1.453600e-15 3 
    7.394670 2.721663e-01 1.493200e-15 3 
    7.424910 2.925528e-01 1.592000e-15 3 
    7.455150 3.972620e-01 2.144300e-15 3 
    7.485400 3.577406e-01 1.915400e-15 3 
    7.515640 3.529738e-01 1.874700e-15 3 
    7.545880 4.226109e-01 2.226600e-15 3 
    7.576120 4.490597e-01 2.347100e-15 3 
    7.636600 5.188911e-01 2.669300e-15 3 
    7.697090 5.907141e-01 2.991200e-15 3 
    7.757570 6.261718e-01 3.121500e-15 3 
    7.818050 6.348529e-01 3.116000e-15 3 
    7.878540 6.560118e-01 3.170600e-15 3 
    7.939020 6.722782e-01 3.199900e-15 3 
    7.999510 6.621269e-01 3.104100e-15 3 
    8.059990 6.280015e-01 2.900100e-15 3 
    8.120470 5.944675e-01 2.704500e-15 3 
    8.180959 5.624861e-01 2.521300e-15 3 
    8.241440 5.080063e-01 2.243800e-15 3 
    8.301920 4.641659e-01 2.020400e-15 3 
    8.362409 4.315606e-01 1.851400e-15 3 
    8.422890 4.017619e-01 1.698900e-15 3 
    8.483370 3.712807e-01 1.547700e-15 3 
    8.543860 3.381490e-01 1.389700e-15 3 
    8.604340 3.114885e-01 1.262200e-15 3 
    8.664830 2.936601e-01 1.173400e-15 3 
    8.725310 2.753406e-01 1.085000e-15 3 
    8.785791 2.434731e-01 9.462600e-16 3 
    8.846280 2.020952e-01 7.747400e-16 3 
    8.906760 1.616832e-01 6.114300e-16 3 
    8.967241 1.276451e-01 4.762200e-16 3 
    9.027730 1.019645e-01 3.753300e-16 3 
    9.088210 8.493853e-02 3.085100e-16 3 
    9.148690 7.365191e-02 2.639900e-16 3 
    9.209180 6.325903e-02 2.237700e-16 3 
    9.269660 5.605565e-02 1.957100e-16 3 
    9.330150 5.156653e-02 1.777100e-16 3 
    9.390630 4.799263e-02 1.632700e-16 3 
    9.451110 4.507263e-02 1.513800e-16 3 
    9.511599 4.177325e-02 1.385200e-16 3 
    9.572080 3.916956e-02 1.282500e-16 3 
    9.632560 3.753202e-02 1.213500e-16 3 
    9.693050 3.721566e-02 1.188300e-16 3 
    9.753530 3.930827e-02 1.239600e-16 3 
    9.814009 5.550300e-02 1.728800e-16 3 
    9.874500 5.212333e-02 1.603700e-16 3 
    9.934980 3.712580e-02 1.128400e-16 3 
    9.995470 3.399918e-02 1.020900e-16 3 
   10.055950 3.264054e-02 9.683500e-17 3 
   10.116430 3.280646e-02 9.616700e-17 3 
   10.176920 3.302182e-02 9.565100e-17 3 
   10.237400 3.429094e-02 9.815700e-17 3 
   10.297880 3.502675e-02 9.908900e-17 3 
   10.358370 3.647343e-02 1.019800e-16 3 
   10.418850 3.741441e-02 1.034000e-16 3 
   10.479330 3.909096e-02 1.067900e-16 3 
   10.539820 4.183567e-02 1.129800e-16 3 
   10.600300 4.532859e-02 1.210200e-16 3 
   10.660791 5.047685e-02 1.332400e-16 3 
   10.721270 5.711266e-02 1.490600e-16 3 
   10.781750 6.124233e-02 1.580500e-16 3 
   10.842241 6.357330e-02 1.622400e-16 3 
   10.902720 6.686795e-02 1.687600e-16 3 
   10.963200 6.949888e-02 1.734700e-16 3 
   11.023690 7.154389e-02 1.766200e-16 3 
   11.084170 7.750345e-02 1.892500e-16 3 
   11.144651 8.908685e-02 2.151800e-16 3 
   11.205140 1.051190e-01 2.511700e-16 3 
   11.265620 1.199339e-01 2.835000e-16 3 
   11.326110 1.653582e-01 3.867100e-16 3 
   11.386590 2.624379e-01 6.072400e-16 3 
   11.447070 3.353065e-01 7.676700e-16 3 
   11.507560 3.204615e-01 7.259900e-16 3 
   11.568040 2.828678e-01 6.341400e-16 3 
   11.628520 2.530554e-01 5.614200e-16 3 
   11.689009 2.359332e-01 5.180300e-16 3 
   11.749490 2.277511e-01 4.949300e-16 3 
   11.809970 2.233699e-01 4.804500e-16 3 
   11.870459 2.233905e-01 4.756100e-16 3 
   11.930940 2.334449e-01 4.919900e-16 3 
   11.991430 2.487355e-01 5.189400e-16 3 
   12.051910 2.709127e-01 5.595500e-16 3 
   12.112390 3.002713e-01 6.140100e-16 3 
   12.172880 3.314616e-01 6.710700e-16 3 
   12.233360 3.586335e-01 7.189200e-16 3 
   12.293841 3.824309e-01 7.591000e-16 3 
   12.354330 4.094896e-01 8.048700e-16 3 
   12.414810 4.486549e-01 8.732800e-16 3 
   12.475291 5.149528e-01 9.926300e-16 3 
   12.535780 5.618485e-01 1.072600e-15 3 
   12.596260 5.882798e-01 1.112300e-15 3 
   12.656750 6.289724e-01 1.177900e-15 3 
   12.717230 6.754836e-01 1.253000e-15 3 
   12.777710 7.287279e-01 1.339000e-15 3 
   12.838200 7.801450e-01 1.420000e-15 3 
   12.898680 8.238382e-01 1.485500e-15 3 
   12.959160 9.060914e-01 1.618600e-15 3 
   13.019651 1.097868e+00 1.943000e-15 3 
   13.080130 1.083055e+00 1.899100e-15 3 
   13.140609 8.501971e-01 1.477100e-15 3 
   13.201100 8.091893e-01 1.393000e-15 3 
   13.261580 8.071824e-01 1.376900e-15 3 
   13.322059 8.080540e-01 1.365900e-15 3 
   13.382550 8.164834e-01 1.367700e-15 3 
   13.443030 8.236992e-01 1.367400e-15 3 
   13.503520 8.279074e-01 1.362100e-15 3 
   13.564000 8.345428e-01 1.360800e-15 3 
   13.624480 8.425584e-01 1.361700e-15 3 
   13.684970 8.528659e-01 1.366200e-15 3 
   13.745450 8.699307e-01 1.381300e-15 3 
   13.805930 8.816692e-01 1.387700e-15 3 
   13.866420 8.788369e-01 1.371200e-15 3 
   13.926900 8.710678e-01 1.347300e-15 3 
   13.987380 8.821713e-01 1.352700e-15 3 
   14.047870 9.058028e-01 1.377000e-15 3 
   14.108350 9.221780e-01 1.389900e-15 3 
   14.168841 9.317088e-01 1.392300e-15 3 
   14.229320 9.209172e-01 1.364500e-15 3 
   14.289800 9.090912e-01 1.335600e-15 3 
   14.350291 8.920237e-01 1.299500e-15 3 
   14.410770 8.752611e-01 1.264400e-15 3 
   14.471250 8.684526e-01 1.244100e-15 3 
   14.577409 1.018587e+00 1.438000e-15 3 
   14.662091 1.026873e+00 1.433000e-15 3 
   14.746770 1.033259e+00 1.425400e-15 3 
   14.831450 1.051759e+00 1.434400e-15 3 
   14.916120 1.061429e+00 1.431200e-15 3 
   15.000800 1.070589e+00 1.427300e-15 3 
   15.085480 1.088096e+00 1.434400e-15 3 
   15.170150 1.096816e+00 1.429800e-15 3 
   15.254830 1.081635e+00 1.394400e-15 3 
   15.339509 1.054382e+00 1.344300e-15 3 
   15.424180 1.032509e+00 1.302000e-15 3 
   15.508859 1.024796e+00 1.278200e-15 3 
   15.593541 1.015268e+00 1.252600e-15 3 
   15.678211 9.942864e-01 1.213500e-15 3 
   15.762891 9.998382e-01 1.207200e-15 3 
   15.847570 1.020320e+00 1.218800e-15 3 
   15.932239 9.776926e-01 1.155500e-15 3 
   16.016920 9.387717e-01 1.097800e-15 3 
   16.101600 9.127734e-01 1.056200e-15 3 
   16.186280 8.910472e-01 1.020300e-15 3 
   16.270950 8.684391e-01 9.840900e-16 3 
   16.355631 8.398461e-01 9.418600e-16 3 
   16.440309 8.292847e-01 9.204600e-16 3 
   16.524981 8.316499e-01 9.136500e-16 3 
   16.609659 8.606009e-01 9.358400e-16 3 
   16.694339 8.847361e-01 9.523500e-16 3 
   16.779011 8.952726e-01 9.539900e-16 3 
   16.863689 8.847755e-01 9.333600e-16 3 
   16.948370 8.753765e-01 9.142400e-16 3 
   17.033039 8.796670e-01 9.096100e-16 3 
   17.117720 8.865698e-01 9.077000e-16 3 
   17.202400 9.087684e-01 9.212900e-16 3 
   17.287069 1.005207e+00 1.009100e-15 3 
   17.371750 1.061252e+00 1.055000e-15 3 
   17.456430 9.473656e-01 9.326700e-16 3 
   17.541109 9.235023e-01 9.004200e-16 3 
   17.625780 9.257702e-01 8.939800e-16 3 
   17.710461 9.285395e-01 8.881000e-16 3 
   17.795139 9.234431e-01 8.748400e-16 3 
   17.879811 9.144025e-01 8.580900e-16 3 
   17.964491 9.286998e-01 8.633100e-16 3 
   18.049170 9.264537e-01 8.531600e-16 3 
   18.133841 9.280086e-01 8.466300e-16 3 
   18.218519 9.359434e-01 8.459500e-16 3 
   18.303200 9.387459e-01 8.406500e-16 3 
   18.387870 9.443856e-01 8.379300e-16 3 
   18.472550 9.488497e-01 8.341900e-16 3 
   18.557230 9.602435e-01 8.365200e-16 3 
   18.641898 9.729875e-01 8.399400e-16 3 
   18.726580 9.867919e-01 8.441700e-16 3 
   18.811261 1.012687e+00 8.585400e-16 3 
   18.895941 1.043807e+00 8.770100e-16 3 
   18.980609 1.081619e+00 9.006900e-16 3 
   19.065291 1.129882e+00 9.325400e-16 3 
   19.149969 1.150026e+00 9.407900e-16 3 
   19.234641 1.167852e+00 9.469800e-16 3 
   19.319320 1.217260e+00 9.784100e-16 3 
   19.404000 1.254988e+00 9.999500e-16 3 
   19.488670 1.288056e+00 1.017400e-15 3 
   19.573352 1.357508e+00 1.063000e-15 3 
   19.658030 1.426730e+00 1.107600e-15 3 
   19.742700 1.460744e+00 1.124300e-15 3 
   19.827380 1.502524e+00 1.146600e-15 3 
   19.912059 1.566268e+00 1.185100e-15 3 
   19.996731 1.633732e+00 1.225700e-15 3 
   20.081409 1.690747e+00 1.257800e-15 3 
   20.166091 1.759124e+00 1.297700e-15 3 
   20.250770 1.834076e+00 1.341700e-15 3 
   20.335439 1.895346e+00 1.375000e-15 3 
   20.420120 1.975796e+00 1.421500e-15 3 
   20.589470 2.080065e+00 1.472000e-15 3 
   20.758830 2.251891e+00 1.567700e-15 3 
   20.928181 2.394485e+00 1.640100e-15 3 
   21.097530 2.478497e+00 1.670500e-15 3 
   21.266889 2.615539e+00 1.734900e-15 3 
   21.436239 2.786330e+00 1.819100e-15 3 
   21.605600 2.912222e+00 1.871600e-15 3 
   21.774950 3.041821e+00 1.924600e-15 3 
   21.944300 3.225759e+00 2.009600e-15 3 
   22.113661 3.384955e+00 2.076600e-15 3 
   22.283011 3.537298e+00 2.137200e-15 3 
   22.452359 3.670750e+00 2.184500e-15 3 
   22.621719 3.868259e+00 2.267700e-15 3 
   22.791070 3.989071e+00 2.303900e-15 3 
   22.960430 4.101120e+00 2.333800e-15 3 
   23.129780 4.276149e+00 2.397900e-15 3 
   23.299130 4.470546e+00 2.470600e-15 3 
   23.468491 4.692744e+00 2.556100e-15 3 
   23.637841 4.897794e+00 2.629700e-15 3 
   23.807191 5.126168e+00 2.713300e-15 3 
   23.976548 5.420687e+00 2.828800e-15 3 
   24.145900 5.715195e+00 2.940800e-15 3 
   24.315259 6.037660e+00 3.063600e-15 3 
   24.484609 6.401819e+00 3.203600e-15 3 
   24.653959 6.762783e+00 3.337900e-15 3 
   24.823320 7.117283e+00 3.465100e-15 3 
   24.992670 7.458750e+00 3.582300e-15 3 
   25.162020 7.821443e+00 3.706100e-15 3 
   25.331381 8.177128e+00 3.823000e-15 3 
   25.500731 8.572738e+00 3.954900e-15 3 
   25.670089 8.987466e+00 4.091700e-15 3 
   25.839439 9.326775e+00 4.190700e-15 3 
   26.008789 9.734443e+00 4.317100e-15 3 
   26.178150 1.001993e+01 4.386400e-15 3 
   26.347500 1.042767e+01 4.506400e-15 3 
   26.516850 1.082653e+01 4.619200e-15 3 
   26.686209 1.123185e+01 4.731500e-15 3 
   26.855559 1.163955e+01 4.841600e-15 3 
   27.024919 1.197476e+01 4.918800e-15 3 
   27.194269 1.232917e+01 5.001500e-15 3 
   27.363622 1.272331e+01 5.097700e-15 3 
   27.532981 1.305843e+01 5.167800e-15 3 
   27.702328 1.335539e+01 5.220900e-15 3 
   27.871678 1.384623e+01 5.347200e-15 3 
   28.041041 1.431249e+01 5.460700e-15 3 
   28.210391 1.495994e+01 5.639400e-15 3 
   28.379750 1.531810e+01 5.705700e-15 3 
   28.549100 1.585791e+01 5.836900e-15 3 
   28.718450 1.640894e+01 5.968700e-15 3 
   28.887809 1.687426e+01 6.066200e-15 3 
   29.057159 1.741069e+01 6.186300e-15 3 
   29.226509 1.786792e+01 6.275400e-15 3 
   29.395869 1.853531e+01 6.435000e-15 3 
   29.565219 1.893480e+01 6.498600e-15 3 
   29.734578 1.955464e+01 6.635100e-15 3 
   29.903931 2.018878e+01 6.772900e-15 3 
   30.073281 2.064298e+01 6.847500e-15 3 
   30.242641 2.119961e+01 6.953600e-15 3 
   30.411991 2.176141e+01 7.058600e-15 3 
   30.581341 2.219585e+01 7.120000e-15 3 
   30.750700 2.293913e+01 7.277600e-15 3 
   30.920050 2.337382e+01 7.334500e-15 3 
   31.089409 2.373367e+01 7.366500e-15 3 
   31.258759 2.429095e+01 7.458000e-15 3 
   31.428109 2.481201e+01 7.536100e-15 3 
   31.597469 2.573276e+01 7.732200e-15 3 
   31.766822 2.601304e+01 7.733300e-15 3 
   31.936172 2.626598e+01 7.725900e-15 3 
   32.105531 2.663463e+01 7.751900e-15 3 
   32.274878 2.729586e+01 7.861200e-15 3 
   32.444241 2.798975e+01 7.977100e-15 3 
   32.613591 2.846885e+01 8.029600e-15 3 
   32.782941 2.840596e+01 7.929300e-15 3 
   32.952300 2.861587e+01 7.906000e-15 3 
   33.121650 2.942564e+01 8.046800e-15 3 
   33.291000 3.009194e+01 8.145500e-15 3 
   33.460363 3.047951e+01 8.167100e-15 3 
   33.629713 2.999677e+01 7.957000e-15 3 
   33.799069 3.179007e+01 8.348400e-15 3 
   33.968419 3.298329e+01 8.575600e-15 3 
   34.137772 3.217324e+01 8.282200e-15 3 
   34.307128 3.238105e+01 8.253600e-15 3 
   34.476478 3.352643e+01 8.461800e-15 3 
   34.645828 3.442957e+01 8.605000e-15 3 
   34.815191 3.577102e+01 8.853500e-15 3 
   34.984538 3.594688e+01 8.811100e-15 3 
