# NGC 7714       
# 
# An Atlas of Galaxy Spectral Energy Distributions from the Ultraviolet to the Mid-Infrared
# Brown et al. (2014)
# http://dx.doi.org/10.5072/03/529D3551F0117
# http://dx.doi.org/10.17909/t9-5bxk-dh29
# 
# The Spectral Energy Distributions of Active Galactic Nuclei
# Brown et al. (2019)
# http://dx.doi.org/10.17909/t9-3dbt-8734
# 
# Column 1: Observed wavelength (um)
# Column 2: f_nu (Jy)
# Column 3: f_lam (erg/s/cm2/A)
# Column 4: Source (0 = model, 1 = Optical Spectrun, 2 = Akari, 3 = Spitzer IRS)
# 
    0.010304 3.736208e-12 1.055700e-20 0 
    0.010495 4.575057e-12 1.246100e-20 0 
    0.010691 5.786882e-12 1.518900e-20 0 
    0.010889 7.385746e-12 1.868700e-20 0 
    0.011092 1.141413e-11 2.783200e-20 0 
    0.011508 1.711666e-11 3.877400e-20 0 
    0.011912 2.417620e-11 5.111400e-20 0 
    0.012218 7.540606e-11 1.515400e-19 0 
    0.012618 1.040888e-10 1.961300e-19 0 
    0.012823 1.200608e-10 2.190500e-19 0 
    0.012912 1.298413e-10 2.336400e-19 0 
    0.013213 1.582773e-10 2.719800e-19 0 
    0.013335 1.851011e-10 3.122800e-19 0 
    0.013521 2.091371e-10 3.431900e-19 0 
    0.013836 2.750664e-10 4.310600e-19 0 
    0.014125 3.283961e-10 4.937900e-19 0 
    0.014421 6.798453e-10 9.807100e-19 0 
    0.014825 1.359563e-09 1.855800e-18 0 
    0.015241 1.668990e-09 2.155500e-18 0 
    0.015631 2.043561e-09 2.509200e-18 0 
    0.016032 2.502653e-09 2.921100e-18 0 
    0.016368 2.906750e-09 3.254900e-18 0 
    0.016749 3.510727e-09 3.754400e-18 0 
    0.017140 4.172943e-09 4.261300e-18 0 
    0.017458 4.768819e-09 4.694000e-18 0 
    0.017865 5.628887e-09 5.291000e-18 0 
    0.018155 6.330156e-09 5.761600e-18 0 
    0.018365 6.861261e-09 6.103000e-18 0 
    0.018793 8.024412e-09 6.816200e-18 0 
    0.019275 9.603070e-09 7.754300e-18 0 
    0.019588 1.074984e-08 8.405100e-18 0 
    0.019999 1.234343e-08 9.258500e-18 0 
    0.020370 1.410647e-08 1.019900e-17 0 
    0.020701 1.560997e-08 1.092800e-17 0 
    0.021184 1.759745e-08 1.176400e-17 0 
    0.021777 2.184813e-08 1.382100e-17 0 
    0.022182 2.462830e-08 1.501600e-17 0 
    0.022491 2.663443e-08 1.579600e-17 0 
    0.022909 3.002158e-08 1.716100e-17 0 
    0.023227 4.790703e-08 2.664000e-17 0 
    0.023605 8.461022e-08 4.555500e-17 0 
    0.024210 1.228594e-07 6.288400e-17 0 
    0.024831 1.292431e-07 6.288400e-17 0 
    0.025410 1.508087e-07 7.007100e-17 0 
    0.025942 1.316520e-07 5.868700e-17 0 
    0.026242 1.665000e-07 7.253400e-17 0 
    0.026669 1.872541e-07 7.898400e-17 0 
    0.027164 2.010977e-07 8.176000e-17 0 
    0.027669 2.154809e-07 8.443900e-17 0 
    0.028184 2.282583e-07 8.620700e-17 0 
    0.028642 2.445834e-07 8.944200e-17 0 
    0.029242 2.526007e-07 8.862200e-17 0 
    0.029854 2.737955e-07 9.216000e-17 0 
    0.030409 2.782413e-07 9.026900e-17 0 
    0.031117 3.086128e-07 9.561800e-17 0 
    0.032063 3.527192e-07 1.029300e-16 0 
    0.033113 3.912208e-07 1.070400e-16 0 
    0.034119 4.240451e-07 1.092800e-16 0 
    0.035156 4.596477e-07 1.115700e-16 0 
    0.036058 4.993555e-07 1.152200e-16 0 
    0.036983 5.488293e-07 1.203800e-16 0 
    0.037844 5.826538e-07 1.220500e-16 0 
    0.038815 5.976196e-07 1.190000e-16 0 
    0.039902 6.705157e-07 1.263400e-16 0 
    0.040832 7.251436e-07 1.304800e-16 0 
    0.041783 7.628065e-07 1.310800e-16 0 
    0.042560 7.878181e-07 1.304800e-16 0 
    0.043451 8.192616e-07 1.301800e-16 0 
    0.044463 8.778354e-07 1.332100e-16 0 
    0.045499 9.213587e-07 1.335200e-16 0 
    0.046452 9.515127e-07 1.322900e-16 0 
    0.047424 9.940738e-07 1.326000e-16 0 
    0.048417 1.052939e-06 1.347500e-16 0 
    0.049431 1.075025e-06 1.319900e-16 0 
    0.050466 1.154557e-06 1.360000e-16 0 
    0.051050 1.220177e-06 1.404600e-16 0 
    0.051642 1.743528e-06 1.961300e-16 0 
    0.052481 1.813126e-06 1.974900e-16 0 
    0.053456 1.885408e-06 1.979400e-16 0 
    0.054450 1.868122e-06 1.890300e-16 0 
    0.055463 2.215234e-06 2.160400e-16 0 
    0.056494 2.596663e-06 2.440800e-16 0 
    0.057544 2.906780e-06 2.633500e-16 0 
    0.058479 2.920275e-06 2.561800e-16 0 
    0.059566 3.391636e-06 2.867700e-16 0 
    0.060534 3.478704e-06 2.848000e-16 0 
    0.061518 3.858514e-06 3.058700e-16 0 
    0.062517 4.638850e-06 3.560700e-16 0 
    0.063533 5.016760e-06 3.728600e-16 0 
    0.064565 5.338499e-06 3.841900e-16 0 
    0.065615 6.003781e-06 4.183500e-16 0 
    0.066374 6.344812e-06 4.320600e-16 0 
    0.067143 6.925019e-06 4.608300e-16 0 
    0.068077 7.352291e-06 4.759300e-16 0 
    0.069183 7.420182e-06 4.650900e-16 0 
    0.070146 9.341660e-06 5.695600e-16 0 
    0.071121 9.065975e-06 5.377000e-16 0 
    0.072277 1.128289e-05 6.479500e-16 0 
    0.073282 1.211761e-05 6.769300e-16 0 
    0.074131 1.292464e-05 7.055700e-16 0 
    0.075162 1.453496e-05 7.718600e-16 0 
    0.076208 1.582781e-05 8.176000e-16 0 
    0.077268 1.684294e-05 8.463300e-16 0 
    0.078163 1.902932e-05 9.344200e-16 0 
    0.079250 2.076919e-05 9.920700e-16 0 
    0.080168 2.245990e-05 1.048400e-15 0 
    0.081283 2.423420e-05 1.100400e-15 0 
    0.082224 2.584648e-05 1.146900e-15 0 
    0.083176 2.880066e-05 1.248900e-15 0 
    0.084333 2.549198e-05 1.075300e-15 0 
    0.085310 3.246625e-05 1.338300e-15 0 
    0.086298 3.446879e-05 1.388500e-15 0 
    0.087297 3.796920e-05 1.494700e-15 0 
    0.088308 4.144018e-05 1.594200e-15 0 
    0.089331 4.564842e-05 1.716100e-15 0 
    0.090365 4.925087e-05 1.809400e-15 0 
    0.091411 5.133630e-05 1.843100e-15 0 
    0.092257 7.301607e-05 2.573600e-15 0 
    0.093325 4.339391e-04 1.494700e-14 0 
    0.094406 9.515274e-04 3.202900e-14 0 
    0.095280 1.829878e-03 6.047000e-14 0 
    0.096383 2.566956e-03 8.289700e-14 0 
    0.097499 3.064911e-03 9.672500e-14 0 
    0.098401 6.129508e-04 1.899100e-14 0 
    0.099312 2.906852e-03 8.841800e-14 0 
    0.100462 3.002082e-03 8.923600e-14 0 
    0.101391 4.134328e-03 1.206500e-13 0 
    0.102329 4.003149e-03 1.146900e-13 0 
    0.103514 1.800609e-03 5.041300e-14 0 
    0.104472 3.121918e-03 8.581100e-14 0 
    0.105439 5.564621e-03 1.501600e-13 0 
    0.106414 5.526083e-03 1.464000e-13 0 
    0.107399 4.628428e-03 1.203800e-13 0 
    0.108393 5.475446e-03 1.398100e-13 0 
    0.109396 4.596312e-03 1.152200e-13 0 
    0.110408 5.907644e-03 1.453900e-13 0 
    0.111429 5.667684e-03 1.369400e-13 0 
    0.112461 5.590185e-03 1.326000e-13 0 
    0.113501 5.086431e-03 1.184500e-13 0 
    0.114551 6.359325e-03 1.453900e-13 0 
    0.115611 5.934906e-03 1.332100e-13 0 
    0.116681 6.330268e-03 1.394900e-13 0 
    0.117490 6.567896e-03 1.427400e-13 0 
    0.118577 4.736047e-03 1.010500e-13 0 
    0.119674 6.674467e-03 1.398100e-13 0 
    0.120504 5.229089e-03 1.080300e-13 0 
    0.121619 4.012551e-03 8.138400e-14 0 
    0.122744 2.561084e-03 5.099700e-14 0 
    0.123595 5.181016e-03 1.017500e-13 0 
    0.124738 7.267875e-03 1.401300e-13 0 
    0.125603 7.806022e-03 1.484400e-13 0 
    0.126765 7.645804e-03 1.427400e-13 0 
    0.127644 7.070072e-03 1.301800e-13 0 
    0.128825 8.402495e-03 1.518900e-13 0 
    0.129718 8.678121e-03 1.547200e-13 0 
    0.130617 7.251409e-03 1.275100e-13 0 
    0.131826 7.523556e-03 1.298800e-13 0 
    0.132739 8.920825e-03 1.518900e-13 0 
    0.133660 8.598423e-03 1.443900e-13 0 
    0.134896 8.024239e-03 1.322900e-13 0 
    0.135831 9.108180e-03 1.481000e-13 0 
    0.136773 9.024186e-03 1.447200e-13 0 
    0.137721 8.422012e-03 1.332100e-13 0 
    0.138676 8.678325e-03 1.353800e-13 0 
    0.139637 8.880263e-03 1.366300e-13 0 
    0.140929 7.610729e-03 1.149600e-13 0 
    0.141906 8.024720e-03 1.195500e-13 0 
    0.142889 8.697756e-03 1.278000e-13 0 
    0.143880 8.818820e-03 1.278000e-13 0 
    0.144877 9.086987e-03 1.298800e-13 0 
    0.145546 9.450020e-03 1.338300e-13 0 
    0.146218 9.515394e-03 1.335200e-13 0 
    0.146893 9.384798e-03 1.304800e-13 0 
    0.147911 8.941401e-03 1.226100e-13 0 
    0.148936 9.107902e-03 1.231800e-13 0 
    0.149969 9.255672e-03 1.234600e-13 0 
    0.151008 9.384365e-03 1.234600e-13 0 
    0.152055 9.003980e-03 1.168300e-13 0 
    0.152757 8.230149e-03 1.058100e-13 0 
    0.153109 8.678364e-03 1.110600e-13 0 
    0.153815 8.758582e-03 1.110600e-13 0 
    0.154882 7.841898e-03 9.807100e-14 0 
    0.155955 8.117050e-03 1.001200e-13 0 
    0.157036 7.950894e-03 9.672500e-14 0 
    0.158125 8.461189e-03 1.015200e-13 0 
    0.158855 9.024845e-03 1.072900e-13 0 
    0.159956 9.341421e-03 1.095300e-13 0 
    0.161065 9.581221e-03 1.108000e-13 0 
    0.162181 9.559270e-03 1.090300e-13 0 
    0.162930 9.625647e-03 1.087800e-13 0 
    0.164059 9.493046e-03 1.058100e-13 0 
    0.165196 1.010265e-02 1.110600e-13 0 
    0.165959 1.019619e-02 1.110600e-13 0 
    0.167109 9.940517e-03 1.067900e-13 0 
    0.167880 1.057828e-02 1.126000e-13 0 
    0.168655 1.005608e-02 1.060600e-13 0 
    0.169434 1.087454e-02 1.136400e-13 0 
    0.170216 1.107656e-02 1.146900e-13 0 
    0.171002 1.067614e-02 1.095300e-13 0 
    0.172187 1.050540e-02 1.063000e-13 0 
    0.172982 1.010193e-02 1.012800e-13 0 
    0.174181 1.014941e-02 1.003600e-13 0 
    0.174985 1.075059e-02 1.053300e-13 0 
    0.176198 1.065179e-02 1.029300e-13 0 
    0.177011 1.112840e-02 1.065500e-13 0 
    0.178238 1.072514e-02 1.012800e-13 0 
    0.179061 1.077525e-02 1.008200e-13 0 
    0.180302 1.112777e-02 1.026900e-13 0 
    0.181134 1.159926e-02 1.060600e-13 0 
    0.182390 1.178729e-02 1.063000e-13 0 
    0.183231 1.100061e-02 9.829700e-14 0 
    0.184077 1.141338e-02 1.010500e-13 0 
    0.185353 1.125689e-02 9.829700e-14 0 
    0.186209 1.055412e-02 9.131500e-14 0 
    0.187068 1.057835e-02 9.068600e-14 0 
    0.188365 1.097534e-02 9.279800e-14 0 
    0.189234 1.176032e-02 9.852400e-14 0 
    0.190108 1.089990e-02 9.047800e-14 0 
    0.191426 1.048150e-02 8.581100e-14 0 
    0.192309 1.136110e-02 9.216000e-14 0 
    0.193197 1.092493e-02 8.780900e-14 0 
    0.194089 1.072556e-02 8.541600e-14 0 
    0.195434 1.138729e-02 8.944200e-14 0 
    0.196336 1.178741e-02 9.173600e-14 0 
    0.197242 1.102603e-02 8.502400e-14 0 
    0.198610 1.203430e-02 9.152500e-14 0 
    0.199526 1.254353e-02 9.452400e-14 0 
    0.200447 1.197897e-02 8.944200e-14 0 
    0.201372 1.181458e-02 8.740600e-14 0 
    0.202302 1.228629e-02 9.006200e-14 0 
    0.203236 1.217365e-02 8.841800e-14 0 
    0.204174 1.277679e-02 9.194800e-14 0 
    0.205589 1.214566e-02 8.620700e-14 0 
    0.206538 1.248584e-02 8.780900e-14 0 
    0.207491 1.186915e-02 8.270700e-14 0 
    0.208449 1.228620e-02 8.482800e-14 0 
    0.209411 1.319521e-02 9.026900e-14 0 
    0.209894 1.240001e-02 8.443900e-14 0 
    0.210378 1.292463e-02 8.760700e-14 0 
    0.211349 1.242854e-02 8.347200e-14 0 
    0.212324 1.283560e-02 8.541600e-14 0 
    0.213304 1.301427e-02 8.581100e-14 0 
    0.214289 1.328673e-02 8.680400e-14 0 
    0.215278 1.298437e-02 8.405100e-14 0 
    0.216272 1.289501e-02 8.270700e-14 0 
    0.217270 1.344056e-02 8.541600e-14 0 
    0.218273 1.331736e-02 8.385700e-14 0 
    0.219281 1.334816e-02 8.328000e-14 0 
    0.220293 1.319536e-02 8.157200e-14 0 
    0.221309 1.365889e-02 8.366400e-14 0 
    0.222331 1.356504e-02 8.232700e-14 0 
    0.223357 1.334813e-02 8.026800e-14 0 
    0.224388 1.313463e-02 7.826000e-14 0 
    0.225424 1.359632e-02 8.026800e-14 0 
    0.226464 1.350256e-02 7.898400e-14 0 
    0.227510 1.325629e-02 7.683200e-14 0 
    0.228560 1.356508e-02 7.790100e-14 0 
    0.229615 1.378549e-02 7.844100e-14 0 
    0.230675 1.397568e-02 7.879400e-14 0 
    0.231739 1.346799e-02 7.523600e-14 0 
    0.232809 1.371622e-02 7.592000e-14 0 
    0.233884 1.346355e-02 7.383800e-14 0 
    0.234423 1.159111e-02 6.327700e-14 0 
    0.235505 1.312356e-02 7.098600e-14 0 
    0.236592 1.309124e-02 7.016200e-14 0 
    0.237684 1.348674e-02 7.161900e-14 0 
    0.238781 1.320784e-02 6.949500e-14 0 
    0.239883 1.335861e-02 6.964400e-14 0 
    0.240991 1.305234e-02 6.742300e-14 0 
    0.241546 1.344782e-02 6.914700e-14 0 
    0.242661 1.323053e-02 6.740600e-14 0 
    0.243781 1.341217e-02 6.770500e-14 0 
    0.244906 1.375397e-02 6.879400e-14 0 
    0.246037 1.346947e-02 6.675300e-14 0 
    0.246604 1.384562e-02 6.830200e-14 0 
    0.247742 1.384317e-02 6.766400e-14 0 
    0.248886 1.380902e-02 6.687800e-14 0 
    0.250035 1.368008e-02 6.564600e-14 0 
    0.250611 1.386900e-02 6.624700e-14 0 
    0.251768 1.288153e-02 6.096600e-14 0 
    0.252930 1.412196e-02 6.622400e-14 0 
    0.253513 1.342319e-02 6.265800e-14 0 
    0.254097 1.389359e-02 6.455600e-14 0 
    0.254683 1.363884e-02 6.308100e-14 0 
    0.255859 1.373082e-02 6.292400e-14 0 
    0.257040 1.363389e-02 6.190700e-14 0 
    0.257632 1.404678e-02 6.348900e-14 0 
    0.258821 1.397979e-02 6.260700e-14 0 
    0.260016 1.440192e-02 6.390600e-14 0 
    0.260615 1.436738e-02 6.346000e-14 0 
    0.261818 1.439796e-02 6.301200e-14 0 
    0.263027 1.423052e-02 6.170800e-14 0 
    0.264241 1.422789e-02 6.113100e-14 0 
    0.264850 1.439129e-02 6.154900e-14 0 
    0.266072 1.462233e-02 6.196400e-14 0 
    0.266686 1.506518e-02 6.354700e-14 0 
    0.267917 1.527181e-02 6.382800e-14 0 
    0.269154 1.475054e-02 6.108400e-14 0 
    0.269774 1.502332e-02 6.192800e-14 0 
    0.271019 1.512460e-02 6.177400e-14 0 
    0.272270 1.481161e-02 5.994100e-14 0 
    0.272898 1.494729e-02 6.021200e-14 0 
    0.274157 1.477310e-02 5.896500e-14 0 
    0.274789 1.470387e-02 5.841900e-14 0 
    0.276058 1.504346e-02 5.922000e-14 0 
    0.277332 1.442991e-02 5.628400e-14 0 
    0.277971 1.452842e-02 5.640800e-14 0 
    0.279254 1.479568e-02 5.691900e-14 0 
    0.279898 1.510399e-02 5.783800e-14 0 
    0.281190 1.496253e-02 5.677100e-14 0 
    0.281838 1.393037e-02 5.261200e-14 0 
    0.283139 1.445023e-02 5.407500e-14 0 
    0.284446 1.526817e-02 5.661200e-14 0 
    0.285102 1.537227e-02 5.673600e-14 0 
    0.286418 1.501956e-02 5.492600e-14 0 
    0.287078 1.494876e-02 5.441600e-14 0 
    0.288403 1.491129e-02 5.378200e-14 0 
    0.289068 1.536284e-02 5.515600e-14 0 
    0.290402 1.546617e-02 5.501800e-14 0 
    0.291072 1.546475e-02 5.476000e-14 0 
    0.292415 1.560437e-02 5.474800e-14 0 
    0.293765 1.603846e-02 5.575500e-14 0 
    0.295801 1.588618e-02 5.446800e-14 0 
    0.297852 1.577190e-02 5.333400e-14 0 
    0.299916 1.594956e-02 5.319500e-14 0 
    0.301995 1.598115e-02 5.256900e-14 0 
    0.304089 1.604973e-02 5.207000e-14 0 
    0.305492 1.612009e-02 5.181900e-14 0 
    0.307610 1.618952e-02 5.132800e-14 0 
    0.309742 1.633380e-02 5.107500e-14 0 
    0.311889 1.629093e-02 5.024200e-14 0 
    0.314051 1.651198e-02 5.022500e-14 0 
    0.316228 1.643036e-02 4.929100e-14 0 
    0.317687 1.642656e-02 4.882800e-14 0 
    0.319890 1.657296e-02 4.858700e-14 0 
    0.322107 1.626500e-02 4.703000e-14 0 
    0.324340 1.656178e-02 4.723100e-14 0 
    0.325837 1.633068e-02 4.614500e-14 0 
    0.328095 1.689868e-02 4.709500e-14 0 
    0.330370 1.724626e-02 4.740400e-14 0 
    0.331894 1.720232e-02 4.685000e-14 0 
    0.334195 1.715688e-02 4.608500e-14 0 
    0.334966 1.747363e-02 4.672000e-14 0 
    0.335738 1.763316e-02 4.693000e-14 0 
    0.336512 1.783535e-02 4.725000e-14 0 
    0.337287 1.714856e-02 4.522200e-14 0 
    0.338065 1.803768e-02 4.734800e-14 0 
    0.338844 1.730304e-02 4.521100e-14 0 
    0.339625 1.659855e-02 4.317100e-14 0 
    0.340408 1.663462e-02 4.306600e-14 0 
    0.341193 1.737653e-02 4.478000e-14 0 
    0.341979 1.777907e-02 4.560700e-14 0 
    0.342768 1.769515e-02 4.518300e-14 0 
    0.343558 1.769301e-02 4.497000e-14 0 
    0.344350 1.732804e-02 4.384000e-14 0 
    0.345144 1.752677e-02 4.413900e-14 0 
    0.345939 1.789123e-02 4.485000e-14 0 
    0.346737 1.805482e-02 4.505200e-14 0 
    0.347536 1.720006e-02 4.272200e-14 0 
    0.348337 1.792577e-02 4.432000e-14 0 
    0.349140 1.751563e-02 4.310700e-14 0 
    0.349945 1.747322e-02 4.280500e-14 0 
    0.350752 1.763263e-02 4.299700e-14 0 
    0.351560 1.750921e-02 4.250000e-14 0 
    0.352371 1.791457e-02 4.328400e-14 0 
    0.353183 1.742427e-02 4.190600e-14 0 
    0.353997 1.778663e-02 4.258100e-14 0 
    0.354813 1.725983e-02 4.113000e-14 0 
    0.355631 1.790568e-02 4.247300e-14 0 
    0.356451 1.782106e-02 4.207800e-14 0 
    0.357273 1.831776e-02 4.305200e-14 0 
    0.358096 1.869890e-02 4.374600e-14 0 
    0.358922 1.844001e-02 4.294200e-14 0 
    0.359749 1.848022e-02 4.283800e-14 0 
    0.360579 1.772785e-02 4.090500e-14 0 
    0.361410 1.744219e-02 4.006100e-14 0 
    0.362243 1.669337e-02 3.816500e-14 0 
    0.363078 1.776175e-02 4.042100e-14 0 
    0.363915 1.804768e-02 4.088300e-14 0 
    0.364754 1.767554e-02 3.985600e-14 0 
    0.365595 1.787788e-02 4.012700e-14 0 
    0.366437 1.969025e-02 4.399200e-14 0 
    0.367282 1.858643e-02 4.133500e-14 0 
    0.367890 1.893269e-02 4.196600e-14 1 
    0.368165 1.883630e-02 4.169000e-14 1 
    0.368440 1.835449e-02 4.056300e-14 1 
    0.368715 1.936618e-02 4.273500e-14 1 
    0.368990 1.993516e-02 4.392500e-14 1 
    0.369265 1.897630e-02 4.175000e-14 1 
    0.369540 1.883615e-02 4.138000e-14 1 
    0.369815 1.787813e-02 3.921700e-14 1 
    0.370090 1.634103e-02 3.579200e-14 1 
    0.370365 1.596387e-02 3.491400e-14 1 
    0.370640 1.760997e-02 3.845700e-14 1 
    0.370915 1.564490e-02 3.411500e-14 1 
    0.371190 1.844396e-02 4.015900e-14 1 
    0.371465 1.827122e-02 3.972400e-14 1 
    0.371740 2.021084e-02 4.387600e-14 1 
    0.372015 1.684315e-02 3.651100e-14 1 
    0.372290 1.835200e-02 3.972300e-14 1 
    0.372565 2.037051e-02 4.402700e-14 1 
    0.372840 1.795680e-02 3.875300e-14 1 
    0.373115 1.823574e-02 3.929700e-14 1 
    0.373390 2.022985e-02 4.353000e-14 1 
    0.373665 1.938607e-02 4.165300e-14 1 
    0.373940 2.051276e-02 4.400900e-14 1 
    0.374215 1.801854e-02 3.860100e-14 1 
    0.374490 1.360261e-02 2.909800e-14 1 
    0.374765 1.701631e-02 3.634700e-14 1 
    0.375040 1.937616e-02 4.132700e-14 1 
    0.375315 2.253735e-02 4.799900e-14 1 
    0.375590 3.278181e-02 6.971500e-14 1 
    0.375865 6.132255e-02 1.302200e-13 1 
    0.376140 9.878224e-02 2.094600e-13 1 
    0.376415 1.193771e-01 2.527600e-13 1 
    0.376690 1.033424e-01 2.184900e-13 1 
    0.376965 6.498352e-02 1.371900e-13 1 
    0.377240 3.408040e-02 7.184400e-14 1 
    0.377515 2.257478e-02 4.752000e-14 1 
    0.377790 1.973653e-02 4.148500e-14 1 
    0.378065 1.957231e-02 4.108000e-14 1 
    0.378340 2.013328e-02 4.219600e-14 1 
    0.378615 1.911420e-02 4.000200e-14 1 
    0.378890 2.085510e-02 4.358200e-14 1 
    0.379165 2.144655e-02 4.475300e-14 1 
    0.379440 2.196526e-02 4.576900e-14 1 
    0.379715 2.198558e-02 4.574500e-14 1 
    0.379990 2.224220e-02 4.621200e-14 1 
    0.380265 1.856972e-02 3.852600e-14 1 
    0.380540 1.986851e-02 4.116100e-14 1 
    0.380815 2.151373e-02 4.450500e-14 1 
    0.381090 2.281121e-02 4.712100e-14 1 
    0.381365 2.299540e-02 4.743300e-14 1 
    0.381640 2.364564e-02 4.870400e-14 1 
    0.381915 2.264413e-02 4.657400e-14 1 
    0.382190 2.343145e-02 4.812400e-14 1 
    0.382465 2.322040e-02 4.762200e-14 1 
    0.382740 2.127131e-02 4.356200e-14 1 
    0.383015 2.124076e-02 4.343700e-14 1 
    0.383290 2.350530e-02 4.799900e-14 1 
    0.383565 2.108064e-02 4.298600e-14 1 
    0.383840 1.981778e-02 4.035300e-14 1 
    0.384115 2.337938e-02 4.753700e-14 1 
    0.384390 2.314888e-02 4.700100e-14 1 
    0.384665 2.280618e-02 4.623900e-14 1 
    0.384940 2.347646e-02 4.753000e-14 1 
    0.385215 2.306682e-02 4.663400e-14 1 
    0.385490 2.277928e-02 4.598700e-14 1 
    0.385765 2.212824e-02 4.460900e-14 1 
    0.386040 2.120156e-02 4.268000e-14 1 
    0.386315 2.320024e-02 4.663700e-14 1 
    0.386590 2.090482e-02 4.196300e-14 1 
    0.386865 1.941748e-02 3.892200e-14 1 
    0.387140 1.946008e-02 3.895200e-14 1 
    0.387415 2.415705e-02 4.828500e-14 1 
    0.387690 2.115622e-02 4.222700e-14 1 
    0.387965 2.178330e-02 4.341700e-14 1 
    0.388240 2.246886e-02 4.472000e-14 1 
    0.388515 2.404285e-02 4.778500e-14 1 
    0.388790 2.369446e-02 4.702600e-14 1 
    0.389065 2.589867e-02 5.132800e-14 1 
    0.389340 2.472715e-02 4.893700e-14 1 
    0.389615 2.469885e-02 4.881200e-14 1 
    0.389890 2.841551e-02 5.607800e-14 1 
    0.390165 2.737174e-02 5.394200e-14 1 
    0.390440 2.911719e-02 5.730100e-14 1 
    0.390715 3.165826e-02 6.221400e-14 1 
    0.390990 2.799210e-02 5.493200e-14 1 
    0.391265 2.645468e-02 5.184200e-14 1 
    0.391540 2.627214e-02 5.141200e-14 1 
    0.391815 2.532756e-02 4.949400e-14 1 
    0.392090 2.433669e-02 4.749100e-14 1 
    0.392365 2.767154e-02 5.392300e-14 1 
    0.392640 2.835887e-02 5.518500e-14 1 
    0.392915 2.701688e-02 5.250000e-14 1 
    0.393190 2.589523e-02 5.025000e-14 1 
    0.393465 2.314170e-02 4.484400e-14 1 
    0.393740 2.425566e-02 4.693700e-14 1 
    0.394015 2.383882e-02 4.606600e-14 1 
    0.394290 2.420636e-02 4.671100e-14 1 
    0.394565 2.519031e-02 4.854200e-14 1 
    0.394840 2.481127e-02 4.774500e-14 1 
    0.395115 2.530066e-02 4.861900e-14 1 
    0.395390 2.725827e-02 5.230800e-14 1 
    0.395665 2.739012e-02 5.248800e-14 1 
    0.395940 2.523554e-02 4.829200e-14 1 
    0.396215 2.544905e-02 4.863300e-14 1 
    0.396490 2.350309e-02 4.485200e-14 1 
    0.396765 2.363908e-02 4.504900e-14 1 
    0.397040 2.145911e-02 4.083800e-14 1 
    0.397315 2.100106e-02 3.991100e-14 1 
    0.397590 2.271262e-02 4.310400e-14 1 
    0.397865 2.308702e-02 4.375400e-14 1 
    0.398140 2.664803e-02 5.043300e-14 1 
    0.398415 2.584621e-02 4.884800e-14 1 
    0.398690 2.643453e-02 4.989100e-14 1 
    0.398965 2.594521e-02 4.890000e-14 1 
    0.399240 2.770030e-02 5.213600e-14 1 
    0.399515 2.472766e-02 4.647700e-14 1 
    0.399790 2.562587e-02 4.809900e-14 1 
    0.400065 2.318086e-02 4.345000e-14 1 
    0.400340 2.563606e-02 4.798600e-14 1 
    0.400615 2.584623e-02 4.831300e-14 1 
    0.400890 3.016204e-02 5.630300e-14 1 
    0.401165 2.532555e-02 4.721000e-14 1 
    0.401440 2.672418e-02 4.974900e-14 1 
    0.401715 2.324606e-02 4.321500e-14 1 
    0.401990 2.760328e-02 5.124500e-14 1 
    0.402265 2.673435e-02 4.956400e-14 1 
    0.402540 2.888983e-02 5.348700e-14 1 
    0.402815 2.884062e-02 5.332300e-14 1 
    0.403090 2.901758e-02 5.357700e-14 1 
    0.403365 3.208401e-02 5.915800e-14 1 
    0.403640 2.900015e-02 5.339900e-14 1 
    0.403915 3.041012e-02 5.591900e-14 1 
    0.404190 2.946642e-02 5.411000e-14 1 
    0.404465 3.158251e-02 5.791700e-14 1 
    0.404740 2.983771e-02 5.464300e-14 1 
    0.405015 3.140436e-02 5.743400e-14 1 
    0.405290 2.951259e-02 5.390100e-14 1 
    0.405565 3.078408e-02 5.614700e-14 1 
    0.405840 3.054749e-02 5.564000e-14 1 
    0.406115 3.121728e-02 5.678300e-14 1 
    0.406390 3.158328e-02 5.737100e-14 1 
    0.406665 2.998330e-02 5.439100e-14 1 
    0.406940 3.077292e-02 5.574800e-14 1 
    0.407215 3.103287e-02 5.614300e-14 1 
    0.407490 2.902576e-02 5.244100e-14 1 
    0.407765 3.063345e-02 5.527100e-14 1 
    0.408040 3.005098e-02 5.414700e-14 1 
    0.408315 2.876217e-02 5.175500e-14 1 
    0.408590 2.992614e-02 5.377700e-14 1 
    0.408865 2.821839e-02 5.064000e-14 1 
    0.409140 3.014905e-02 5.403200e-14 1 
    0.409415 2.783899e-02 4.982500e-14 1 
    0.409690 2.959235e-02 5.289200e-14 1 
    0.409965 3.020633e-02 5.391700e-14 1 
    0.410240 2.810950e-02 5.010700e-14 1 
    0.410515 2.987118e-02 5.317600e-14 1 
    0.410790 3.113239e-02 5.534700e-14 1 
    0.411065 3.083051e-02 5.473700e-14 1 
    0.411340 3.053732e-02 5.414400e-14 1 
    0.411615 2.759230e-02 4.885700e-14 1 
    0.411890 2.870535e-02 5.076000e-14 1 
    0.412165 2.877767e-02 5.082000e-14 1 
    0.412440 2.851329e-02 5.028600e-14 1 
    0.412715 2.811925e-02 4.952500e-14 1 
    0.412990 2.680760e-02 4.715200e-14 1 
    0.413265 2.692586e-02 4.729700e-14 1 
    0.413540 2.868155e-02 5.031400e-14 1 
    0.413815 3.270853e-02 5.730200e-14 1 
    0.414090 3.563843e-02 6.235200e-14 1 
    0.414365 3.538646e-02 6.182900e-14 1 
    0.414640 3.160350e-02 5.514600e-14 1 
    0.414915 2.861494e-02 4.986500e-14 1 
    0.415190 2.804667e-02 4.881000e-14 1 
    0.415465 2.866266e-02 4.981600e-14 1 
    0.415740 2.885790e-02 5.008900e-14 1 
    0.416015 2.910435e-02 5.045000e-14 1 
    0.416290 2.792282e-02 4.833800e-14 1 
    0.416565 2.976151e-02 5.145300e-14 1 
    0.416840 2.901313e-02 5.009300e-14 1 
    0.417115 2.895457e-02 4.992600e-14 1 
    0.417390 2.892424e-02 4.980800e-14 1 
    0.417665 2.885770e-02 4.962800e-14 1 
    0.417940 2.891551e-02 4.966200e-14 1 
    0.418215 2.932495e-02 5.029900e-14 1 
    0.418490 2.993155e-02 5.127200e-14 1 
    0.418765 3.028012e-02 5.180100e-14 1 
    0.419040 3.086717e-02 5.273600e-14 1 
    0.419315 2.913714e-02 4.971500e-14 1 
    0.419590 3.091480e-02 5.267900e-14 1 
    0.419865 2.970430e-02 5.055000e-14 1 
    0.420140 3.007036e-02 5.110600e-14 1 
    0.420415 3.087860e-02 5.241100e-14 1 
    0.420690 3.082108e-02 5.224500e-14 1 
    0.420965 3.081827e-02 5.217200e-14 1 
    0.421240 3.083607e-02 5.213400e-14 1 
    0.421515 3.007977e-02 5.078900e-14 1 
    0.421790 3.118943e-02 5.259400e-14 1 
    0.422065 3.206559e-02 5.400100e-14 1 
    0.422340 3.032367e-02 5.100100e-14 1 
    0.422615 2.947314e-02 4.950600e-14 1 
    0.422890 3.060181e-02 5.133500e-14 1 
    0.423165 3.236546e-02 5.422300e-14 1 
    0.423440 3.265079e-02 5.463000e-14 1 
    0.423715 3.233773e-02 5.403600e-14 1 
    0.423990 3.090803e-02 5.158000e-14 1 
    0.424265 3.217514e-02 5.362500e-14 1 
    0.424540 3.190145e-02 5.310000e-14 1 
    0.424815 3.172142e-02 5.273200e-14 1 
    0.425090 2.960613e-02 4.915200e-14 1 
    0.425365 3.124090e-02 5.179900e-14 1 
    0.425640 3.059891e-02 5.066900e-14 1 
    0.425915 3.069470e-02 5.076200e-14 1 
    0.426190 3.063929e-02 5.060500e-14 1 
    0.426465 3.086496e-02 5.091200e-14 1 
    0.426740 3.057031e-02 5.036100e-14 1 
    0.427015 3.053496e-02 5.023800e-14 1 
    0.427290 3.052500e-02 5.015700e-14 1 
    0.427565 3.120171e-02 5.120300e-14 1 
    0.427840 2.982447e-02 4.888000e-14 1 
    0.428115 3.000761e-02 4.911700e-14 1 
    0.428390 3.022541e-02 4.941000e-14 1 
    0.428665 3.156704e-02 5.153700e-14 1 
    0.428940 3.094826e-02 5.046200e-14 1 
    0.429215 3.015342e-02 4.910300e-14 1 
    0.429490 3.116972e-02 5.069300e-14 1 
    0.429765 2.986689e-02 4.851200e-14 1 
    0.430040 3.002163e-02 4.870100e-14 1 
    0.430315 3.083714e-02 4.996000e-14 1 
    0.430590 2.971962e-02 4.808800e-14 1 
    0.430865 3.009609e-02 4.863500e-14 1 
    0.431140 3.052859e-02 4.927100e-14 1 
    0.431415 2.974242e-02 4.794100e-14 1 
    0.431690 3.055062e-02 4.918100e-14 1 
    0.431965 3.103303e-02 4.989400e-14 1 
    0.432240 3.070948e-02 4.931100e-14 1 
    0.432515 3.162779e-02 5.072100e-14 1 
    0.432790 3.059351e-02 4.900000e-14 1 
    0.433065 2.971155e-02 4.752700e-14 1 
    0.433340 2.945009e-02 4.704900e-14 1 
    0.433615 2.854988e-02 4.555300e-14 1 
    0.433890 2.865953e-02 4.567000e-14 1 
    0.434165 2.819572e-02 4.487400e-14 1 
    0.434440 2.764007e-02 4.393400e-14 1 
    0.434715 2.793523e-02 4.434700e-14 1 
    0.434990 2.766910e-02 4.386900e-14 1 
    0.435265 2.858380e-02 4.526200e-14 1 
    0.435540 3.091650e-02 4.889400e-14 1 
    0.435815 3.071244e-02 4.851000e-14 1 
    0.436090 3.098640e-02 4.888100e-14 1 
    0.436365 2.953645e-02 4.653500e-14 1 
    0.436640 2.928199e-02 4.607600e-14 1 
    0.436915 2.880283e-02 4.526500e-14 1 
    0.437190 2.999037e-02 4.707200e-14 1 
    0.437465 3.226274e-02 5.057500e-14 1 
    0.437740 3.734346e-02 5.846600e-14 1 
    0.438015 4.946141e-02 7.734100e-14 1 
    0.438290 5.524870e-02 8.628200e-14 1 
    0.438565 5.129367e-02 8.000500e-14 1 
    0.438840 4.242485e-02 6.608900e-14 1 
    0.439115 3.342569e-02 5.200500e-14 1 
    0.439390 3.083997e-02 4.792200e-14 1 
    0.439665 3.008411e-02 4.668900e-14 1 
    0.439940 3.213271e-02 4.980600e-14 1 
    0.440215 3.245582e-02 5.024400e-14 1 
    0.440490 3.423491e-02 5.293200e-14 1 
    0.440765 3.308029e-02 5.108300e-14 1 
    0.441040 3.246606e-02 5.007200e-14 1 
    0.441315 3.274806e-02 5.044400e-14 1 
    0.441590 3.071277e-02 4.725000e-14 1 
    0.441865 3.371159e-02 5.179900e-14 1 
    0.442140 3.092812e-02 4.746300e-14 1 
    0.442415 3.004341e-02 4.604800e-14 1 
    0.442690 3.118476e-02 4.773800e-14 1 
    0.442965 3.154858e-02 4.823500e-14 1 
    0.443240 3.243124e-02 4.952300e-14 1 
    0.443515 3.108079e-02 4.740200e-14 1 
    0.443790 3.270282e-02 4.981400e-14 1 
    0.444065 3.173701e-02 4.828300e-14 1 
    0.444340 3.345127e-02 5.082800e-14 1 
    0.444615 3.206015e-02 4.865400e-14 1 
    0.444890 3.196654e-02 4.845200e-14 1 
    0.445165 3.305243e-02 5.003600e-14 1 
    0.445440 3.350730e-02 5.066200e-14 1 
    0.445715 3.364140e-02 5.080200e-14 1 
    0.445990 3.355695e-02 5.061200e-14 1 
    0.446265 3.249504e-02 4.895000e-14 1 
    0.446540 3.219679e-02 4.844100e-14 1 
    0.446815 3.434603e-02 5.161100e-14 1 
    0.447090 3.408049e-02 5.114900e-14 1 
    0.447365 3.328519e-02 4.989400e-14 1 
    0.447640 3.270027e-02 4.895700e-14 1 
    0.447915 3.355233e-02 5.017100e-14 1 
    0.448190 3.516304e-02 5.251500e-14 1 
    0.448465 3.362271e-02 5.015300e-14 1 
    0.448740 3.233158e-02 4.816800e-14 1 
    0.449015 3.286719e-02 4.890600e-14 1 
    0.449290 3.505258e-02 5.209400e-14 1 
    0.449565 3.523967e-02 5.230800e-14 1 
    0.449840 3.248421e-02 4.815900e-14 1 
    0.450115 3.191478e-02 4.725700e-14 1 
    0.450390 3.309449e-02 4.894400e-14 1 
    0.450665 3.237600e-02 4.782300e-14 1 
    0.450940 3.442188e-02 5.078300e-14 1 
    0.451215 3.467290e-02 5.109100e-14 1 
    0.451490 3.656879e-02 5.381900e-14 1 
    0.451765 3.553983e-02 5.224100e-14 1 
    0.452040 3.574659e-02 5.248100e-14 1 
    0.452315 3.456188e-02 5.068000e-14 1 
    0.452590 3.394024e-02 4.970800e-14 1 
    0.452865 3.378325e-02 4.941800e-14 1 
    0.453140 3.608230e-02 5.271700e-14 1 
    0.453415 3.499539e-02 5.106700e-14 1 
    0.453690 3.456032e-02 5.037100e-14 1 
    0.453965 3.443255e-02 5.012400e-14 1 
    0.454240 3.512423e-02 5.106900e-14 1 
    0.454515 3.566120e-02 5.178700e-14 1 
    0.454790 3.702879e-02 5.370800e-14 1 
    0.455065 3.649168e-02 5.286500e-14 1 
    0.455340 3.509620e-02 5.078200e-14 1 
    0.455615 3.634813e-02 5.253000e-14 1 
    0.455890 3.436286e-02 4.960100e-14 1 
    0.456165 3.510142e-02 5.060600e-14 1 
    0.456440 3.537848e-02 5.094400e-14 1 
    0.456715 3.569090e-02 5.133200e-14 1 
    0.456990 3.286861e-02 4.721600e-14 1 
    0.457265 3.461506e-02 4.966500e-14 1 
    0.457540 3.402380e-02 4.875800e-14 1 
    0.457815 3.598250e-02 5.150300e-14 1 
    0.458090 3.439313e-02 4.916900e-14 1 
    0.458365 3.661736e-02 5.228600e-14 1 
    0.458640 3.536695e-02 5.044000e-14 1 
    0.458915 3.549783e-02 5.056600e-14 1 
    0.459190 3.470891e-02 4.938300e-14 1 
    0.459465 3.392155e-02 4.820500e-14 1 
    0.459740 3.357045e-02 4.764900e-14 1 
    0.460015 3.384410e-02 4.798000e-14 1 
    0.460290 3.497357e-02 4.952200e-14 1 
    0.460565 3.682405e-02 5.208000e-14 1 
    0.460840 3.794619e-02 5.360300e-14 1 
    0.461115 3.787951e-02 5.344500e-14 1 
    0.461390 3.649698e-02 5.143300e-14 1 
    0.461665 3.663996e-02 5.157300e-14 1 
    0.461940 3.754571e-02 5.278500e-14 1 
    0.462215 3.707555e-02 5.206200e-14 1 
    0.462490 3.635322e-02 5.098700e-14 1 
    0.462765 3.700965e-02 5.184600e-14 1 
    0.463040 3.538128e-02 4.950600e-14 1 
    0.463315 3.561437e-02 4.977300e-14 1 
    0.463590 3.598692e-02 5.023400e-14 1 
    0.463865 3.588833e-02 5.003700e-14 1 
    0.464140 3.608312e-02 5.024900e-14 1 
    0.464415 3.561473e-02 4.953800e-14 1 
    0.464690 3.697773e-02 5.137300e-14 1 
    0.464965 3.602703e-02 4.999300e-14 1 
    0.465240 3.630126e-02 5.031400e-14 1 
    0.465515 3.815439e-02 5.282000e-14 1 
    0.465790 3.716747e-02 5.139300e-14 1 
    0.466065 3.727943e-02 5.148700e-14 1 
    0.466340 3.806937e-02 5.251600e-14 1 
    0.466615 3.691677e-02 5.086600e-14 1 
    0.466890 3.706420e-02 5.100900e-14 1 
    0.467165 3.726574e-02 5.122600e-14 1 
    0.467440 3.650336e-02 5.011900e-14 1 
    0.467715 3.629767e-02 4.977800e-14 1 
    0.467990 3.859987e-02 5.287300e-14 1 
    0.468265 3.566168e-02 4.879100e-14 1 
    0.468540 3.760983e-02 5.139600e-14 1 
    0.468815 3.508761e-02 4.789300e-14 1 
    0.469090 3.693463e-02 5.035500e-14 1 
    0.469365 3.649621e-02 4.969900e-14 1 
    0.469640 3.640518e-02 4.951700e-14 1 
    0.469915 3.668705e-02 4.984200e-14 1 
    0.470190 3.912281e-02 5.308900e-14 1 
    0.470465 3.809806e-02 5.163800e-14 1 
    0.470740 3.794760e-02 5.137400e-14 1 
    0.471015 3.739590e-02 5.056800e-14 1 
    0.471290 3.680063e-02 4.970500e-14 1 
    0.471565 3.621057e-02 4.885100e-14 1 
    0.471840 3.819194e-02 5.146400e-14 1 
    0.472115 3.811388e-02 5.129900e-14 1 
    0.472390 3.751934e-02 5.044000e-14 1 
    0.472665 3.644672e-02 4.894100e-14 1 
    0.472940 3.811301e-02 5.111900e-14 1 
    0.473215 3.864626e-02 5.177400e-14 1 
    0.473490 3.896545e-02 5.214100e-14 1 
    0.473765 3.927708e-02 5.249700e-14 1 
    0.474040 3.959909e-02 5.286600e-14 1 
    0.474315 3.934133e-02 5.246100e-14 1 
    0.474590 3.888093e-02 5.178700e-14 1 
    0.474865 3.693938e-02 4.914400e-14 1 
    0.475140 3.844057e-02 5.108200e-14 1 
    0.475415 3.840673e-02 5.097800e-14 1 
    0.475690 3.794430e-02 5.030600e-14 1 
    0.475965 3.947204e-02 5.227100e-14 1 
    0.476240 3.680886e-02 4.868800e-14 1 
    0.476515 3.899262e-02 5.151700e-14 1 
    0.476790 3.830337e-02 5.054800e-14 1 
    0.477065 3.789997e-02 4.995800e-14 1 
    0.477340 3.727835e-02 4.908200e-14 1 
    0.477615 3.727341e-02 4.901900e-14 1 
    0.477890 3.683522e-02 4.838700e-14 1 
    0.478165 3.846821e-02 5.047400e-14 1 
    0.478440 3.885430e-02 5.092200e-14 1 
    0.478715 3.971635e-02 5.199200e-14 1 
    0.478990 3.893680e-02 5.091300e-14 1 
    0.479265 3.905886e-02 5.101400e-14 1 
    0.479540 4.012394e-02 5.234500e-14 1 
    0.479815 4.016230e-02 5.233500e-14 1 
    0.480090 3.900906e-02 5.077400e-14 1 
    0.480365 3.757541e-02 4.885200e-14 1 
    0.480640 3.948813e-02 5.128000e-14 1 
    0.480915 3.964588e-02 5.142600e-14 1 
    0.481190 3.791453e-02 4.912400e-14 1 
    0.481465 3.664816e-02 4.742900e-14 1 
    0.481740 3.894037e-02 5.033800e-14 1 
    0.482015 3.772480e-02 4.871100e-14 1 
    0.482290 3.908904e-02 5.041500e-14 1 
    0.482565 3.847616e-02 4.956800e-14 1 
    0.482840 3.916270e-02 5.039500e-14 1 
    0.483115 3.745605e-02 4.814400e-14 1 
    0.483390 3.617849e-02 4.644900e-14 1 
    0.483665 3.717255e-02 4.767100e-14 1 
    0.483940 3.843266e-02 4.923100e-14 1 
    0.484215 3.756272e-02 4.806200e-14 1 
    0.484490 3.658589e-02 4.675900e-14 1 
    0.484765 3.824186e-02 4.882000e-14 1 
    0.485040 3.845779e-02 4.904000e-14 1 
    0.485315 3.818109e-02 4.863200e-14 1 
    0.485590 3.868810e-02 4.922200e-14 1 
    0.485865 3.868866e-02 4.916700e-14 1 
    0.486140 3.801087e-02 4.825100e-14 1 
    0.486415 3.932048e-02 4.985700e-14 1 
    0.486690 3.713998e-02 4.703900e-14 1 
    0.486965 3.754873e-02 4.750300e-14 1 
    0.487240 3.808812e-02 4.813100e-14 1 
    0.487515 3.761775e-02 4.748300e-14 1 
    0.487790 3.708598e-02 4.675900e-14 1 
    0.488065 3.674985e-02 4.628300e-14 1 
    0.488340 3.737793e-02 4.702100e-14 1 
    0.488615 3.688763e-02 4.635200e-14 1 
    0.488890 3.574366e-02 4.486400e-14 1 
    0.489165 3.739106e-02 4.687900e-14 1 
    0.489440 3.713128e-02 4.650100e-14 1 
    0.489715 3.747679e-02 4.688100e-14 1 
    0.489990 4.237512e-02 5.294900e-14 1 
    0.490265 5.698850e-02 7.112900e-14 1 
    0.490540 8.774955e-02 1.094000e-13 1 
    0.490815 1.156558e-01 1.440300e-13 1 
    0.491090 1.154076e-01 1.435600e-13 1 
    0.491365 8.605710e-02 1.069300e-13 1 
    0.491640 5.289337e-02 6.564900e-14 1 
    0.491915 4.038733e-02 5.007100e-14 1 
    0.492190 3.656375e-02 4.528000e-14 1 
    0.492465 3.551327e-02 4.393000e-14 1 
    0.492740 3.694981e-02 4.565600e-14 1 
    0.493015 3.750393e-02 4.628900e-14 1 
    0.493290 3.854670e-02 4.752300e-14 1 
    0.493565 3.721088e-02 4.582500e-14 1 
    0.493840 3.692393e-02 4.542100e-14 1 
    0.494115 3.695611e-02 4.541000e-14 1 
    0.494390 3.830247e-02 4.701200e-14 1 
    0.494665 3.901148e-02 4.782900e-14 1 
    0.494940 3.910631e-02 4.789200e-14 1 
    0.495215 3.981601e-02 4.870700e-14 1 
    0.495490 3.901159e-02 4.767000e-14 1 
    0.495765 3.923515e-02 4.789000e-14 1 
    0.496040 3.790816e-02 4.621900e-14 1 
    0.496315 3.989537e-02 4.858800e-14 1 
    0.496590 3.913486e-02 4.760900e-14 1 
    0.496865 3.707977e-02 4.505900e-14 1 
    0.497140 3.873306e-02 4.701600e-14 1 
    0.497415 3.718583e-02 4.508800e-14 1 
    0.497690 3.770914e-02 4.567200e-14 1 
    0.497965 3.858152e-02 4.667700e-14 1 
    0.498240 3.708090e-02 4.481200e-14 1 
    0.498515 3.802728e-02 4.590500e-14 1 
    0.498790 3.941188e-02 4.752400e-14 1 
    0.499065 3.933414e-02 4.737800e-14 1 
    0.499340 4.073142e-02 4.900700e-14 1 
    0.499615 4.162415e-02 5.002600e-14 1 
    0.499890 4.354000e-02 5.227100e-14 1 
    0.500165 5.443758e-02 6.528200e-14 1 
    0.500440 7.416786e-02 8.884500e-14 1 
    0.500715 9.030772e-02 1.080600e-13 1 
    0.500990 8.669228e-02 1.036200e-13 1 
    0.501265 6.951457e-02 8.299700e-14 1 
    0.501540 5.007789e-02 5.972500e-14 1 
    0.501815 4.324308e-02 5.151700e-14 1 
    0.502090 4.099306e-02 4.878300e-14 1 
    0.502365 3.990988e-02 4.744200e-14 1 
    0.502640 4.049426e-02 4.808400e-14 1 
    0.502915 4.020977e-02 4.769400e-14 1 
    0.503190 3.973892e-02 4.708400e-14 1 
    0.503465 3.918416e-02 4.637600e-14 1 
    0.503740 4.099142e-02 4.846200e-14 1 
    0.504015 4.039349e-02 4.770300e-14 1 
    0.504290 4.031721e-02 4.756100e-14 1 
    0.504565 5.001169e-02 5.893300e-14 1 
    0.504840 6.871882e-02 8.088900e-14 1 
    0.505115 1.045909e-01 1.229800e-13 1 
    0.505390 1.693088e-01 1.988600e-13 1 
    0.505665 2.004665e-01 2.352000e-13 1 
    0.505940 1.660085e-01 1.945600e-13 1 
    0.506215 1.024331e-01 1.199200e-13 1 
    0.506490 6.036543e-02 7.059400e-14 1 
    0.506765 4.547690e-02 5.312500e-14 1 
    0.507040 4.108805e-02 4.794600e-14 1 
    0.507315 3.879659e-02 4.522300e-14 1 
    0.507590 3.724210e-02 4.336400e-14 1 
    0.507865 3.797457e-02 4.416900e-14 1 
    0.508140 3.897882e-02 4.528800e-14 1 
    0.508415 3.871428e-02 4.493200e-14 1 
    0.508690 3.946605e-02 4.575500e-14 1 
    0.508965 3.917025e-02 4.536300e-14 1 
    0.509240 3.926878e-02 4.542800e-14 1 
    0.509515 3.969282e-02 4.586900e-14 1 
    0.509790 4.072844e-02 4.701500e-14 1 
    0.510065 4.016187e-02 4.631100e-14 1 
    0.510340 4.068875e-02 4.686800e-14 1 
    0.510615 4.096466e-02 4.713500e-14 1 
    0.510890 4.063556e-02 4.670600e-14 1 
    0.511165 3.957058e-02 4.543300e-14 1 
    0.511440 3.991746e-02 4.578200e-14 1 
    0.511715 3.932671e-02 4.505600e-14 1 
    0.511990 3.874599e-02 4.434300e-14 1 
    0.512265 3.982154e-02 4.552500e-14 1 
    0.512540 3.846851e-02 4.393100e-14 1 
    0.512815 3.784183e-02 4.316900e-14 1 
    0.513090 3.856077e-02 4.394200e-14 1 
    0.513365 3.910987e-02 4.452000e-14 1 
    0.513640 4.110234e-02 4.673800e-14 1 
    0.513915 4.121591e-02 4.681700e-14 1 
    0.514190 4.083348e-02 4.633300e-14 1 
    0.514465 4.028871e-02 4.566600e-14 1 
    0.514740 3.872703e-02 4.384900e-14 1 
    0.515015 3.874279e-02 4.382000e-14 1 
    0.515290 3.913820e-02 4.422000e-14 1 
    0.515565 3.807778e-02 4.297600e-14 1 
    0.515840 3.949232e-02 4.452500e-14 1 
    0.516115 4.142481e-02 4.665400e-14 1 
    0.516390 4.099165e-02 4.611700e-14 1 
    0.516665 3.898075e-02 4.380800e-14 1 
    0.516940 3.951218e-02 4.435800e-14 1 
    0.517215 3.903526e-02 4.377600e-14 1 
    0.517490 3.905803e-02 4.375500e-14 1 
    0.517765 3.960086e-02 4.431600e-14 1 
    0.518040 3.876807e-02 4.333800e-14 1 
    0.518315 3.905640e-02 4.361400e-14 1 
    0.518590 3.969041e-02 4.427500e-14 1 
    0.518865 3.964636e-02 4.417900e-14 1 
    0.519140 3.931648e-02 4.376500e-14 1 
    0.519415 3.899932e-02 4.336600e-14 1 
    0.519690 4.029559e-02 4.476000e-14 1 
    0.519965 3.987322e-02 4.424400e-14 1 
    0.520240 3.901144e-02 4.324200e-14 1 
    0.520515 3.940310e-02 4.363000e-14 1 
    0.520790 4.015987e-02 4.442100e-14 1 
    0.521065 3.842844e-02 4.246100e-14 1 
    0.521340 3.698592e-02 4.082400e-14 1 
    0.521615 3.654608e-02 4.029600e-14 1 
    0.521890 3.506117e-02 3.861800e-14 1 
    0.522165 3.653594e-02 4.020000e-14 1 
    0.522440 3.820482e-02 4.199200e-14 1 
    0.522715 3.817219e-02 4.191200e-14 1 
    0.522990 3.860532e-02 4.234300e-14 1 
    0.523265 3.712904e-02 4.068100e-14 1 
    0.523540 3.679622e-02 4.027400e-14 1 
    0.523815 3.844734e-02 4.203700e-14 1 
    0.524090 3.869922e-02 4.226800e-14 1 
    0.524365 3.949139e-02 4.308800e-14 1 
    0.524640 4.147515e-02 4.520500e-14 1 
    0.524915 4.383590e-02 4.772800e-14 1 
    0.525190 4.331088e-02 4.710700e-14 1 
    0.525465 4.102309e-02 4.457200e-14 1 
    0.525740 3.969325e-02 4.308200e-14 1 
    0.526015 3.880049e-02 4.206900e-14 1 
    0.526290 3.924823e-02 4.251000e-14 1 
    0.526565 4.152221e-02 4.492600e-14 1 
    0.526840 4.271099e-02 4.616400e-14 1 
    0.527115 4.183776e-02 4.517300e-14 1 
    0.527390 3.943935e-02 4.253900e-14 1 
    0.527665 3.869903e-02 4.169700e-14 1 
    0.527940 3.978737e-02 4.282500e-14 1 
    0.528215 4.086582e-02 4.394000e-14 1 
    0.528490 4.153309e-02 4.461100e-14 1 
    0.528765 4.064715e-02 4.361400e-14 1 
    0.529040 4.053270e-02 4.344600e-14 1 
    0.529315 4.144806e-02 4.438100e-14 1 
    0.529590 4.165381e-02 4.455500e-14 1 
    0.529865 4.071162e-02 4.350200e-14 1 
    0.530140 4.064616e-02 4.338700e-14 1 
    0.530415 4.155486e-02 4.431100e-14 1 
    0.530690 4.282025e-02 4.561300e-14 1 
    0.530965 4.250753e-02 4.523300e-14 1 
    0.531240 4.127690e-02 4.387800e-14 1 
    0.531515 4.116615e-02 4.371500e-14 1 
    0.531790 3.918768e-02 4.157100e-14 1 
    0.532065 3.859692e-02 4.090200e-14 1 
    0.532340 4.085669e-02 4.325200e-14 1 
    0.532615 4.153056e-02 4.392000e-14 1 
    0.532890 4.107083e-02 4.338900e-14 1 
    0.533165 4.148467e-02 4.378100e-14 1 
    0.533440 4.230906e-02 4.460500e-14 1 
    0.533715 4.353103e-02 4.584600e-14 1 
    0.533990 4.379927e-02 4.608100e-14 1 
    0.534265 4.277210e-02 4.495400e-14 1 
    0.534540 4.448863e-02 4.671000e-14 1 
    0.534815 4.457732e-02 4.675500e-14 1 
    0.535090 4.317725e-02 4.524000e-14 1 
    0.535365 4.291210e-02 4.491600e-14 1 
    0.535640 4.271902e-02 4.466800e-14 1 
    0.535915 4.438464e-02 4.636200e-14 1 
    0.536190 4.385521e-02 4.576200e-14 1 
    0.536465 4.313755e-02 4.496700e-14 1 
    0.536740 4.196892e-02 4.370400e-14 1 
    0.537015 4.330583e-02 4.505000e-14 1 
    0.537290 4.289793e-02 4.458000e-14 1 
    0.537565 4.314317e-02 4.478900e-14 1 
    0.537840 4.172553e-02 4.327300e-14 1 
    0.538115 4.177497e-02 4.328000e-14 1 
    0.538390 4.119737e-02 4.263800e-14 1 
    0.538665 4.256260e-02 4.400600e-14 1 
    0.538940 4.301174e-02 4.442500e-14 1 
    0.539215 4.349856e-02 4.488200e-14 1 
    0.539490 4.254755e-02 4.385600e-14 1 
    0.539765 4.195774e-02 4.320400e-14 1 
    0.540040 4.218521e-02 4.339400e-14 1 
    0.540315 4.195182e-02 4.311000e-14 1 
    0.540590 4.247283e-02 4.360100e-14 1 
    0.540865 4.495677e-02 4.610400e-14 1 
    0.541140 4.603229e-02 4.715900e-14 1 
    0.541415 4.398516e-02 4.501600e-14 1 
    0.541690 4.242774e-02 4.337800e-14 1 
    0.541965 4.238271e-02 4.328800e-14 1 
    0.542240 4.178868e-02 4.263800e-14 1 
    0.542515 4.275623e-02 4.358100e-14 1 
    0.542790 4.390835e-02 4.471000e-14 1 
    0.543065 4.199655e-02 4.272000e-14 1 
    0.543340 4.266299e-02 4.335400e-14 1 
    0.543615 4.408921e-02 4.475800e-14 1 
    0.543890 4.414368e-02 4.476800e-14 1 
    0.544165 4.222706e-02 4.278100e-14 1 
    0.544440 4.160677e-02 4.211000e-14 1 
    0.544715 4.264182e-02 4.311400e-14 1 
    0.544990 4.276211e-02 4.319200e-14 1 
    0.545265 4.100652e-02 4.137700e-14 1 
    0.545540 4.121258e-02 4.154300e-14 1 
    0.545815 4.067022e-02 4.095500e-14 1 
    0.546090 4.104720e-02 4.129300e-14 1 
    0.546365 4.222490e-02 4.243500e-14 1 
    0.546640 4.471970e-02 4.489700e-14 1 
    0.546915 4.429011e-02 4.442100e-14 1 
    0.547190 4.406319e-02 4.414900e-14 1 
    0.547465 4.480383e-02 4.484600e-14 1 
    0.547740 4.391680e-02 4.391400e-14 1 
    0.548015 4.482983e-02 4.478200e-14 1 
    0.548290 4.328053e-02 4.319100e-14 1 
    0.548565 4.201695e-02 4.188800e-14 1 
    0.548840 4.363851e-02 4.346100e-14 1 
    0.549115 4.460292e-02 4.437700e-14 1 
    0.549390 4.509230e-02 4.481900e-14 1 
    0.549665 4.446974e-02 4.415600e-14 1 
    0.549940 4.395273e-02 4.359900e-14 1 
    0.550215 4.297143e-02 4.258300e-14 1 
    0.550490 4.265176e-02 4.222400e-14 1 
    0.550765 4.402909e-02 4.354400e-14 1 
    0.551040 4.422186e-02 4.369100e-14 1 
    0.551315 4.156188e-02 4.102200e-14 1 
    0.551590 4.294308e-02 4.234300e-14 1 
    0.551865 4.519190e-02 4.451600e-14 1 
    0.552140 4.395248e-02 4.325200e-14 1 
    0.552415 4.470424e-02 4.394800e-14 1 
    0.552690 4.324587e-02 4.247200e-14 1 
    0.552965 4.199245e-02 4.120000e-14 1 
    0.553240 4.293001e-02 4.207800e-14 1 
    0.553515 4.508365e-02 4.414500e-14 1 
    0.553790 4.451406e-02 4.354400e-14 1 
    0.554065 4.495430e-02 4.393100e-14 1 
    0.554340 4.471520e-02 4.365400e-14 1 
    0.554615 4.348613e-02 4.241200e-14 1 
    0.554890 4.502875e-02 4.387300e-14 1 
    0.555165 4.341729e-02 4.226100e-14 1 
    0.555440 4.415138e-02 4.293300e-14 1 
    0.555715 4.290527e-02 4.168000e-14 1 
    0.555990 4.375250e-02 4.246100e-14 1 
    0.556265 4.289845e-02 4.159100e-14 1 
    0.556540 4.468572e-02 4.328100e-14 1 
    0.556815 4.352073e-02 4.211100e-14 1 
    0.557090 4.439856e-02 4.291800e-14 1 
    0.557365 4.548621e-02 4.392600e-14 1 
    0.557640 4.560470e-02 4.399700e-14 1 
    0.557915 4.769784e-02 4.597100e-14 1 
    0.558190 4.608729e-02 4.437500e-14 1 
    0.558465 4.360230e-02 4.194100e-14 1 
    0.558740 4.452980e-02 4.279100e-14 1 
    0.559015 4.772153e-02 4.581300e-14 1 
    0.559290 4.492093e-02 4.308200e-14 1 
    0.559565 4.416980e-02 4.232000e-14 1 
    0.559840 4.341609e-02 4.155700e-14 1 
    0.560115 4.573225e-02 4.373100e-14 1 
    0.560390 4.350354e-02 4.155900e-14 1 
    0.560665 4.434678e-02 4.232300e-14 1 
    0.560940 4.524615e-02 4.313900e-14 1 
    0.561215 4.577241e-02 4.359800e-14 1 
    0.561490 4.549676e-02 4.329300e-14 1 
    0.561765 4.569071e-02 4.343500e-14 1 
    0.562040 4.630090e-02 4.397200e-14 1 
    0.562315 4.361532e-02 4.138100e-14 1 
    0.562590 4.190348e-02 3.971800e-14 1 
    0.562865 4.599760e-02 4.355600e-14 1 
    0.563140 4.386496e-02 4.149600e-14 1 
    0.563415 4.481250e-02 4.235100e-14 1 
    0.563690 4.651913e-02 4.392100e-14 1 
    0.563965 4.449717e-02 4.197100e-14 1 
    0.564240 4.377543e-02 4.125000e-14 1 
    0.564515 4.565688e-02 4.298100e-14 1 
    0.564790 4.284962e-02 4.029900e-14 1 
    0.565065 4.605028e-02 4.326700e-14 1 
    0.565340 4.520341e-02 4.243000e-14 1 
    0.565615 4.337480e-02 4.067400e-14 1 
    0.565890 4.671110e-02 4.376000e-14 1 
    0.566165 4.606841e-02 4.311600e-14 1 
    0.566440 4.597307e-02 4.298500e-14 1 
    0.566715 4.533577e-02 4.234800e-14 1 
    0.566990 4.633565e-02 4.324000e-14 1 
    0.567265 4.449063e-02 4.147800e-14 1 
    0.567540 4.506631e-02 4.197400e-14 1 
    0.567815 4.393319e-02 4.087900e-14 1 
    0.568090 4.381439e-02 4.072900e-14 1 
    0.568365 4.471395e-02 4.152500e-14 1 
    0.568640 4.543303e-02 4.215200e-14 1 
    0.568915 4.524287e-02 4.193500e-14 1 
    0.569190 4.587086e-02 4.247600e-14 1 
    0.569465 4.673024e-02 4.323000e-14 1 
    0.569740 4.693985e-02 4.338200e-14 1 
    0.570015 4.539417e-02 4.191300e-14 1 
    0.570290 4.667060e-02 4.305000e-14 1 
    0.570565 4.608732e-02 4.247100e-14 1 
    0.570840 4.685408e-02 4.313600e-14 1 
    0.571115 4.708950e-02 4.331100e-14 1 
    0.571390 4.539360e-02 4.171100e-14 1 
    0.571665 4.376953e-02 4.018000e-14 1 
    0.571940 4.375386e-02 4.012700e-14 1 
    0.572215 4.469856e-02 4.095400e-14 1 
    0.572490 4.561552e-02 4.175400e-14 1 
    0.572765 4.575121e-02 4.183800e-14 1 
    0.573040 4.510666e-02 4.120900e-14 1 
    0.573315 4.434029e-02 4.047000e-14 1 
    0.573590 4.969408e-02 4.531300e-14 1 
    0.573865 4.458458e-02 4.061500e-14 1 
    0.574140 4.611728e-02 4.197100e-14 1 
    0.574415 4.407287e-02 4.007200e-14 1 
    0.574690 4.675613e-02 4.247100e-14 1 
    0.574965 4.513694e-02 4.096100e-14 1 
    0.575240 4.648277e-02 4.214200e-14 1 
    0.575515 4.577095e-02 4.145700e-14 1 
    0.575790 4.592521e-02 4.155700e-14 1 
    0.576065 4.302557e-02 3.889600e-14 1 
    0.576340 4.622336e-02 4.174700e-14 1 
    0.576615 4.265891e-02 3.849100e-14 1 
    0.576890 4.629387e-02 4.173100e-14 1 
    0.577165 4.611150e-02 4.152700e-14 1 
    0.577440 4.665005e-02 4.197200e-14 1 
    0.577715 4.800949e-02 4.315400e-14 1 
    0.577990 4.789151e-02 4.300700e-14 1 
    0.578265 4.822913e-02 4.326900e-14 1 
    0.578540 4.435446e-02 3.975500e-14 1 
    0.578815 4.627055e-02 4.143300e-14 1 
    0.579090 4.652356e-02 4.162000e-14 1 
    0.579365 4.597923e-02 4.109400e-14 1 
    0.579640 4.859203e-02 4.338800e-14 1 
    0.579915 4.711807e-02 4.203200e-14 1 
    0.580190 4.663091e-02 4.155800e-14 1 
    0.580465 4.462203e-02 3.973000e-14 1 
    0.580740 5.004473e-02 4.451600e-14 1 
    0.581015 4.792488e-02 4.259000e-14 1 
    0.581290 5.179076e-02 4.598200e-14 1 
    0.581565 4.689616e-02 4.159700e-14 1 
    0.581840 4.922452e-02 4.362100e-14 1 
    0.582115 4.866564e-02 4.308500e-14 1 
    0.582390 4.807963e-02 4.252600e-14 1 
    0.582665 4.868974e-02 4.302500e-14 1 
    0.582940 4.806174e-02 4.243000e-14 1 
    0.583215 4.909804e-02 4.330400e-14 1 
    0.583490 4.797316e-02 4.227200e-14 1 
    0.583765 4.723573e-02 4.158300e-14 1 
    0.584040 4.705967e-02 4.138900e-14 1 
    0.584315 4.691166e-02 4.122000e-14 1 
    0.584590 4.868506e-02 4.273800e-14 1 
    0.584865 5.070460e-02 4.446900e-14 1 
    0.585140 4.887372e-02 4.282300e-14 1 
    0.585415 4.875288e-02 4.267700e-14 1 
    0.585690 4.692459e-02 4.103800e-14 1 
    0.585965 4.672145e-02 4.082200e-14 1 
    0.586240 4.972438e-02 4.340500e-14 1 
    0.586515 4.977104e-02 4.340500e-14 1 
    0.586790 4.711824e-02 4.105300e-14 1 
    0.587065 4.878799e-02 4.246800e-14 1 
    0.587340 5.090122e-02 4.426600e-14 1 
    0.587615 4.891743e-02 4.250100e-14 1 
    0.587890 5.220740e-02 4.531700e-14 1 
    0.588165 4.931577e-02 4.276700e-14 1 
    0.588440 4.763406e-02 4.127000e-14 1 
    0.588715 5.103122e-02 4.417200e-14 1 
    0.588990 4.939062e-02 4.271200e-14 1 
    0.589265 4.851890e-02 4.191900e-14 1 
    0.589540 4.952461e-02 4.274800e-14 1 
    0.589815 5.028050e-02 4.336000e-14 1 
    0.590090 4.961706e-02 4.274800e-14 1 
    0.590365 4.887448e-02 4.206900e-14 1 
    0.590640 5.040847e-02 4.334900e-14 1 
    0.590915 4.907965e-02 4.216700e-14 1 
    0.591190 4.911369e-02 4.215700e-14 1 
    0.591465 4.936230e-02 4.233100e-14 1 
    0.591740 4.859118e-02 4.163100e-14 1 
    0.592015 4.734891e-02 4.052900e-14 1 
    0.592290 4.748413e-02 4.060700e-14 1 
    0.592565 5.060299e-02 4.323400e-14 1 
    0.592840 5.751513e-02 4.909400e-14 1 
    0.593115 6.621657e-02 5.646900e-14 1 
    0.593390 6.546108e-02 5.577300e-14 1 
    0.593665 5.856934e-02 4.985500e-14 1 
    0.593940 5.362612e-02 4.560500e-14 1 
    0.594215 4.682817e-02 3.978700e-14 1 
    0.594490 4.331966e-02 3.677200e-14 1 
    0.594765 4.352483e-02 3.691200e-14 1 
    0.595040 4.256542e-02 3.606500e-14 1 
    0.595315 4.432243e-02 3.751900e-14 1 
    0.595590 4.578112e-02 3.871800e-14 1 
    0.595865 4.780343e-02 4.039100e-14 1 
    0.596140 4.844579e-02 4.089600e-14 1 
    0.596415 4.815020e-02 4.060900e-14 1 
    0.596690 4.919746e-02 4.145400e-14 1 
    0.596965 4.852296e-02 4.084800e-14 1 
    0.597240 4.823951e-02 4.057200e-14 1 
    0.597515 4.578835e-02 3.847500e-14 1 
    0.597790 4.604134e-02 3.865200e-14 1 
    0.598065 4.877706e-02 4.091100e-14 1 
    0.598340 4.812500e-02 4.032700e-14 1 
    0.598615 4.672394e-02 3.911700e-14 1 
    0.598890 4.469258e-02 3.738200e-14 1 
    0.599165 4.748595e-02 3.968200e-14 1 
    0.599440 4.753195e-02 3.968400e-14 1 
    0.599715 4.741492e-02 3.955000e-14 1 
    0.599990 4.838479e-02 4.032200e-14 1 
    0.600265 4.812408e-02 4.006800e-14 1 
    0.600540 4.929701e-02 4.100700e-14 1 
    0.600815 4.788984e-02 3.980000e-14 1 
    0.601090 4.860331e-02 4.035600e-14 1 
    0.601365 4.774128e-02 3.960400e-14 1 
    0.601640 4.855475e-02 4.024200e-14 1 
    0.601915 5.043722e-02 4.176400e-14 1 
    0.602190 4.783489e-02 3.957300e-14 1 
    0.602465 4.780237e-02 3.951000e-14 1 
    0.602740 4.914298e-02 4.058100e-14 1 
    0.603015 4.915753e-02 4.055600e-14 1 
    0.603290 4.983567e-02 4.107800e-14 1 
    0.603565 4.889753e-02 4.026800e-14 1 
    0.603840 5.103625e-02 4.199100e-14 1 
    0.604115 4.903413e-02 4.030700e-14 1 
    0.604390 4.828489e-02 3.965500e-14 1 
    0.604665 4.931358e-02 4.046300e-14 1 
    0.604940 5.060146e-02 4.148200e-14 1 
    0.605215 5.046189e-02 4.133000e-14 1 
    0.605490 4.767380e-02 3.901100e-14 1 
    0.605765 4.756055e-02 3.888300e-14 1 
    0.606040 4.825995e-02 3.941900e-14 1 
    0.606315 5.005485e-02 4.084800e-14 1 
    0.606590 4.982553e-02 4.062400e-14 1 
    0.606865 4.875972e-02 3.971900e-14 1 
    0.607140 4.986678e-02 4.058400e-14 1 
    0.607415 4.827381e-02 3.925200e-14 1 
    0.607690 5.076836e-02 4.124300e-14 1 
    0.607965 5.050877e-02 4.099500e-14 1 
    0.608240 5.026591e-02 4.076100e-14 1 
    0.608515 4.723426e-02 3.826800e-14 1 
    0.608790 5.013448e-02 4.058100e-14 1 
    0.609065 4.787859e-02 3.872000e-14 1 
    0.609340 5.120285e-02 4.137100e-14 1 
    0.609615 5.153895e-02 4.160500e-14 1 
    0.609890 4.975910e-02 4.013200e-14 1 
    0.610165 5.202663e-02 4.192300e-14 1 
    0.610440 5.126367e-02 4.127100e-14 1 
    0.610715 5.259787e-02 4.230700e-14 1 
    0.610990 5.338191e-02 4.289900e-14 1 
    0.611265 5.154930e-02 4.138900e-14 1 
    0.611540 4.864996e-02 3.902600e-14 1 
    0.611815 4.871369e-02 3.904200e-14 1 
    0.612090 5.060204e-02 4.051900e-14 1 
    0.612365 5.150500e-02 4.120500e-14 1 
    0.612640 4.974344e-02 3.976000e-14 1 
    0.612915 4.994338e-02 3.988400e-14 1 
    0.613190 5.002957e-02 3.991700e-14 1 
    0.613465 4.987374e-02 3.975700e-14 1 
    0.613740 4.919022e-02 3.917700e-14 1 
    0.614015 5.328093e-02 4.239700e-14 1 
    0.614290 4.833253e-02 3.842500e-14 1 
    0.614565 5.162898e-02 4.100900e-14 1 
    0.614840 4.759879e-02 3.777400e-14 1 
    0.615115 5.032147e-02 3.989900e-14 1 
    0.615390 4.986533e-02 3.950200e-14 1 
    0.615665 5.318232e-02 4.209200e-14 1 
    0.615940 5.001520e-02 3.955000e-14 1 
    0.616215 5.229010e-02 4.131200e-14 1 
    0.616490 5.094830e-02 4.021600e-14 1 
    0.616765 5.104321e-02 4.025500e-14 1 
    0.617040 5.083491e-02 4.005500e-14 1 
    0.617315 5.721375e-02 4.504100e-14 1 
    0.617590 6.370433e-02 5.010600e-14 1 
    0.617865 5.955793e-02 4.680300e-14 1 
    0.618140 4.973120e-02 3.904600e-14 1 
    0.618415 4.896215e-02 3.840800e-14 1 
    0.618690 5.031225e-02 3.943200e-14 1 
    0.618965 5.157019e-02 4.038200e-14 1 
    0.619240 4.870813e-02 3.810700e-14 1 
    0.619515 4.913904e-02 3.841000e-14 1 
    0.619790 4.947462e-02 3.863800e-14 1 
    0.620065 5.057458e-02 3.946200e-14 1 
    0.620340 4.745108e-02 3.699200e-14 1 
    0.620615 5.264150e-02 4.100200e-14 1 
    0.620890 4.945379e-02 3.848500e-14 1 
    0.621165 5.293420e-02 4.115700e-14 1 
    0.621440 4.826187e-02 3.749100e-14 1 
    0.621715 5.016251e-02 3.893300e-14 1 
    0.621990 4.703197e-02 3.647100e-14 1 
    0.622265 4.735107e-02 3.668600e-14 1 
    0.622540 4.695242e-02 3.634500e-14 1 
    0.622815 4.866963e-02 3.764100e-14 1 
    0.623090 4.768766e-02 3.684900e-14 1 
    0.623365 5.031514e-02 3.884500e-14 1 
    0.623640 5.154188e-02 3.975700e-14 1 
    0.623915 5.486760e-02 4.228500e-14 1 
    0.624190 5.014711e-02 3.861300e-14 1 
    0.624465 4.849629e-02 3.730900e-14 1 
    0.624740 4.764263e-02 3.662000e-14 1 
    0.625015 4.912215e-02 3.772400e-14 1 
    0.625290 4.824005e-02 3.701400e-14 1 
    0.625565 5.121226e-02 3.926000e-14 1 
    0.625840 4.707028e-02 3.605300e-14 1 
    0.626115 4.822107e-02 3.690200e-14 1 
    0.626390 4.840338e-02 3.700900e-14 1 
    0.626665 4.958082e-02 3.787600e-14 1 
    0.626940 4.965055e-02 3.789600e-14 1 
    0.627215 5.077334e-02 3.871900e-14 1 
    0.627490 4.867197e-02 3.708400e-14 1 
    0.627765 4.768738e-02 3.630200e-14 1 
    0.628040 4.815122e-02 3.662300e-14 1 
    0.628315 4.826972e-02 3.668100e-14 1 
    0.628590 4.969360e-02 3.773000e-14 1 
    0.628865 5.040016e-02 3.823300e-14 1 
    0.629140 4.749541e-02 3.599800e-14 1 
    0.629415 4.848510e-02 3.671600e-14 1 
    0.629690 4.883543e-02 3.694900e-14 1 
    0.629965 4.720204e-02 3.568200e-14 1 
    0.630240 5.037057e-02 3.804400e-14 1 
    0.630515 5.082798e-02 3.835600e-14 1 
    0.630790 5.159120e-02 3.889800e-14 1 
    0.631065 5.177425e-02 3.900200e-14 1 
    0.631340 5.179547e-02 3.898400e-14 1 
    0.631615 4.890309e-02 3.677500e-14 1 
    0.631890 4.880859e-02 3.667200e-14 1 
    0.632165 5.154461e-02 3.869400e-14 1 
    0.632440 4.926291e-02 3.694900e-14 1 
    0.632715 5.048406e-02 3.783200e-14 1 
    0.632990 5.205186e-02 3.897300e-14 1 
    0.633265 4.918566e-02 3.679500e-14 1 
    0.633540 4.805772e-02 3.592000e-14 1 
    0.633815 5.170824e-02 3.861500e-14 1 
    0.634090 4.885554e-02 3.645300e-14 1 
    0.634365 4.922523e-02 3.669700e-14 1 
    0.634640 5.155966e-02 3.840400e-14 1 
    0.634915 5.164198e-02 3.843200e-14 1 
    0.635190 5.122543e-02 3.808900e-14 1 
    0.635465 5.310446e-02 3.945200e-14 1 
    0.635740 5.679062e-02 4.215400e-14 1 
    0.636015 6.264456e-02 4.645900e-14 1 
    0.636290 6.684725e-02 4.953300e-14 1 
    0.636565 6.245578e-02 4.623900e-14 1 
    0.636840 4.978313e-02 3.682500e-14 1 
    0.637115 5.226298e-02 3.862600e-14 1 
    0.637390 5.657389e-02 4.177600e-14 1 
    0.637665 4.796992e-02 3.539200e-14 1 
    0.637940 5.198738e-02 3.832300e-14 1 
    0.638215 4.844237e-02 3.567900e-14 1 
    0.638490 5.246434e-02 3.860800e-14 1 
    0.638765 5.313654e-02 3.906900e-14 1 
    0.639040 5.248262e-02 3.855500e-14 1 
    0.639315 5.470221e-02 4.015100e-14 1 
    0.639590 5.318389e-02 3.900300e-14 1 
    0.639865 5.144316e-02 3.769400e-14 1 
    0.640140 5.276044e-02 3.862600e-14 1 
    0.640415 5.426038e-02 3.969000e-14 1 
    0.640690 5.536877e-02 4.046600e-14 1 
    0.640965 5.851539e-02 4.272900e-14 1 
    0.641240 5.450581e-02 3.976700e-14 1 
    0.641515 5.775436e-02 4.210100e-14 1 
    0.641790 5.644051e-02 4.110800e-14 1 
    0.642065 5.502679e-02 4.004400e-14 1 
    0.642340 5.432025e-02 3.949600e-14 1 
    0.642615 5.593737e-02 4.063700e-14 1 
    0.642890 5.744286e-02 4.169500e-14 1 
    0.643165 5.643028e-02 4.092500e-14 1 
    0.643440 5.202099e-02 3.769500e-14 1 
    0.643715 5.361658e-02 3.881800e-14 1 
    0.643990 5.370802e-02 3.885100e-14 1 
    0.644265 5.490782e-02 3.968500e-14 1 
    0.644540 5.327913e-02 3.847500e-14 1 
    0.644815 5.324422e-02 3.841700e-14 1 
    0.645090 5.368359e-02 3.870100e-14 1 
    0.645365 5.419306e-02 3.903500e-14 1 
    0.645640 5.520775e-02 3.973200e-14 1 
    0.645915 5.343021e-02 3.842000e-14 1 
    0.646190 5.433171e-02 3.903500e-14 1 
    0.646465 5.453816e-02 3.915000e-14 1 
    0.646740 5.395577e-02 3.869900e-14 1 
    0.647015 5.196434e-02 3.723900e-14 1 
    0.647290 5.480455e-02 3.924100e-14 1 
    0.647565 5.404879e-02 3.866700e-14 1 
    0.647840 5.446264e-02 3.893000e-14 1 
    0.648115 5.395441e-02 3.853400e-14 1 
    0.648390 5.202849e-02 3.712700e-14 1 
    0.648665 5.399834e-02 3.850000e-14 1 
    0.648940 5.270777e-02 3.754800e-14 1 
    0.649215 5.103000e-02 3.632200e-14 1 
    0.649490 5.253561e-02 3.736200e-14 1 
    0.649765 5.552703e-02 3.945600e-14 1 
    0.650040 5.305000e-02 3.766400e-14 1 
    0.650315 5.250563e-02 3.724600e-14 1 
    0.650590 5.437433e-02 3.853900e-14 1 
    0.650865 5.558104e-02 3.936100e-14 1 
    0.651140 5.449034e-02 3.855600e-14 1 
    0.651415 5.404696e-02 3.821000e-14 1 
    0.651690 5.442104e-02 3.844200e-14 1 
    0.651965 5.334340e-02 3.764900e-14 1 
    0.652240 5.320265e-02 3.751800e-14 1 
    0.652515 5.306869e-02 3.739200e-14 1 
    0.652790 5.355236e-02 3.770100e-14 1 
    0.653065 5.318237e-02 3.740900e-14 1 
    0.653340 5.397416e-02 3.793400e-14 1 
    0.653615 5.344145e-02 3.752800e-14 1 
    0.653890 5.143978e-02 3.609200e-14 1 
    0.654165 5.141316e-02 3.604300e-14 1 
    0.654440 5.311102e-02 3.720200e-14 1 
    0.654715 5.340714e-02 3.737800e-14 1 
    0.654990 5.594172e-02 3.911900e-14 1 
    0.655265 5.428267e-02 3.792700e-14 1 
    0.655540 5.194322e-02 3.626200e-14 1 
    0.655815 5.003849e-02 3.490300e-14 1 
    0.656090 5.057405e-02 3.524700e-14 1 
    0.656365 5.158004e-02 3.591800e-14 1 
    0.656640 5.351613e-02 3.723500e-14 1 
    0.656915 5.228506e-02 3.634800e-14 1 
    0.657190 5.221079e-02 3.626600e-14 1 
    0.657465 5.357289e-02 3.718100e-14 1 
    0.657740 5.247704e-02 3.639000e-14 1 
    0.658015 5.194506e-02 3.599100e-14 1 
    0.658290 5.326685e-02 3.687600e-14 1 
    0.658565 5.338655e-02 3.692800e-14 1 
    0.658840 5.575486e-02 3.853400e-14 1 
    0.659115 5.601429e-02 3.868100e-14 1 
    0.659390 5.311603e-02 3.664900e-14 1 
    0.659665 5.457025e-02 3.762100e-14 1 
    0.659940 5.472464e-02 3.769600e-14 1 
    0.660215 5.826604e-02 4.010200e-14 1 
    0.660490 6.655821e-02 4.577100e-14 1 
    0.660765 9.141166e-02 6.281000e-14 1 
    0.661040 1.156888e-01 7.942500e-14 1 
    0.661315 1.173785e-01 8.051800e-14 1 
    0.661590 1.159237e-01 7.945400e-14 1 
    0.661865 1.555424e-01 1.065200e-13 1 
    0.662140 3.126732e-01 2.139500e-13 1 
    0.662415 5.683109e-01 3.885500e-13 1 
    0.662690 6.733903e-01 4.600100e-13 1 
    0.662965 5.284233e-01 3.606800e-13 1 
    0.663240 2.667477e-01 1.819200e-13 1 
    0.663515 1.237872e-01 8.435200e-14 1 
    0.663790 8.753741e-02 5.960100e-14 1 
    0.664065 1.110746e-01 7.556400e-14 1 
    0.664340 1.802170e-01 1.225000e-13 1 
    0.664615 2.443998e-01 1.659900e-13 1 
    0.664890 2.405055e-01 1.632100e-13 1 
    0.665165 1.683059e-01 1.141200e-13 1 
    0.665440 9.874671e-02 6.690000e-14 1 
    0.665715 6.994506e-02 4.734800e-14 1 
    0.665990 5.932827e-02 4.012800e-14 1 
    0.666265 5.954152e-02 4.023900e-14 1 
    0.666540 5.855700e-02 3.954100e-14 1 
    0.666815 5.712764e-02 3.854400e-14 1 
    0.667090 5.535616e-02 3.731800e-14 1 
    0.667365 5.514052e-02 3.714200e-14 1 
    0.667640 5.532713e-02 3.723700e-14 1 
    0.667915 5.580842e-02 3.753000e-14 1 
    0.668190 5.681133e-02 3.817300e-14 1 
    0.668465 5.386871e-02 3.616600e-14 1 
    0.668740 5.491629e-02 3.683900e-14 1 
    0.669015 5.381118e-02 3.606800e-14 1 
    0.669290 5.535456e-02 3.707200e-14 1 
    0.669565 5.334079e-02 3.569400e-14 1 
    0.669840 5.361494e-02 3.584800e-14 1 
    0.670115 5.486244e-02 3.665200e-14 1 
    0.670390 5.541382e-02 3.699000e-14 1 
    0.670665 5.512795e-02 3.676900e-14 1 
    0.670940 5.443190e-02 3.627500e-14 1 
    0.671215 5.362654e-02 3.570900e-14 1 
    0.671490 5.735283e-02 3.815900e-14 1 
    0.671765 5.731558e-02 3.810300e-14 1 
    0.672040 5.491012e-02 3.647400e-14 1 
    0.672315 5.312594e-02 3.526000e-14 1 
    0.672590 5.504376e-02 3.650300e-14 1 
    0.672865 5.817199e-02 3.854600e-14 1 
    0.673140 5.502356e-02 3.643000e-14 1 
    0.673415 5.417818e-02 3.584100e-14 1 
    0.673690 5.979884e-02 3.952700e-14 1 
    0.673965 6.335886e-02 4.184600e-14 1 
    0.674240 6.382729e-02 4.212100e-14 1 
    0.674515 6.215807e-02 4.098600e-14 1 
    0.674790 5.708920e-02 3.761300e-14 1 
    0.675065 5.504858e-02 3.623900e-14 1 
    0.675340 5.738754e-02 3.774800e-14 1 
    0.675615 5.630989e-02 3.700900e-14 1 
    0.675890 5.589586e-02 3.670700e-14 1 
    0.676165 5.631626e-02 3.695300e-14 1 
    0.676440 5.692641e-02 3.732300e-14 1 
    0.676715 5.806414e-02 3.803800e-14 1 
    0.676990 6.095443e-02 3.989900e-14 1 
    0.677265 6.754332e-02 4.417600e-14 1 
    0.677540 8.394532e-02 5.485900e-14 1 
    0.677815 1.141676e-01 7.454900e-14 1 
    0.678090 1.461340e-01 9.534500e-14 1 
    0.678365 1.386627e-01 9.039700e-14 1 
    0.678640 1.045100e-01 6.807700e-14 1 
    0.678915 8.544485e-02 5.561300e-14 1 
    0.679190 1.076995e-01 7.004100e-14 1 
    0.679465 1.267122e-01 8.233900e-14 1 
    0.679740 1.298520e-01 8.431100e-14 1 
    0.680015 9.953444e-02 6.457400e-14 1 
    0.680290 7.512697e-02 4.870000e-14 1 
    0.680565 5.912040e-02 3.829300e-14 1 
    0.680840 6.164196e-02 3.989400e-14 1 
    0.681115 5.704950e-02 3.689200e-14 1 
    0.681390 5.612675e-02 3.626600e-14 1 
    0.681665 5.657477e-02 3.652600e-14 1 
    0.681940 5.859686e-02 3.780100e-14 1 
    0.682215 5.863327e-02 3.779400e-14 1 
    0.682490 5.816973e-02 3.746500e-14 1 
    0.682765 5.945041e-02 3.825900e-14 1 
    0.683912 5.648844e-02 3.623100e-14 0 
    0.685488 5.608965e-02 3.581000e-14 0 
    0.687068 5.764984e-02 3.663700e-14 0 
    0.688652 5.803926e-02 3.671500e-14 0 
    0.690240 5.829771e-02 3.670900e-14 0 
    0.691831 5.842159e-02 3.661800e-14 0 
    0.693426 5.629670e-02 3.512400e-14 0 
    0.695024 5.786395e-02 3.593600e-14 0 
    0.696626 5.785277e-02 3.576400e-14 0 
    0.698233 5.851327e-02 3.600600e-14 0 
    0.699842 5.796532e-02 3.550500e-14 0 
    0.701455 5.971550e-02 3.640900e-14 0 
    0.703072 5.956768e-02 3.615200e-14 0 
    0.704693 5.983109e-02 3.614500e-14 0 
    0.706318 5.981965e-02 3.597200e-14 0 
    0.707946 5.926041e-02 3.547200e-14 0 
    0.709578 5.884248e-02 3.506000e-14 0 
    0.711214 6.075806e-02 3.603500e-14 0 
    0.712853 6.018978e-02 3.553400e-14 0 
    0.714496 6.059519e-02 3.560900e-14 0 
    0.716143 5.879778e-02 3.439400e-14 0 
    0.717794 5.933025e-02 3.454600e-14 0 
    0.719449 5.918317e-02 3.430200e-14 0 
    0.721108 5.903523e-02 3.405900e-14 0 
    0.722770 5.970818e-02 3.428900e-14 0 
    0.724436 5.874171e-02 3.357900e-14 0 
    0.726106 5.481083e-02 3.118800e-14 0 
    0.727780 5.831597e-02 3.303000e-14 0 
    0.729457 6.105224e-02 3.442100e-14 0 
    0.731139 6.020262e-02 3.378600e-14 0 
    0.732825 5.977708e-02 3.339300e-14 0 
    0.734514 6.272533e-02 3.487900e-14 0 
    0.736207 6.185313e-02 3.423600e-14 0 
    0.737904 6.212590e-02 3.422900e-14 0 
    0.739605 6.385495e-02 3.502000e-14 0 
    0.741310 6.547958e-02 3.574600e-14 0 
    0.743019 6.295337e-02 3.420900e-14 0 
    0.744732 6.575643e-02 3.556800e-14 0 
    0.746449 6.351180e-02 3.419600e-14 0 
    0.748170 6.618582e-02 3.547200e-14 0 
    0.749894 6.363264e-02 3.394700e-14 0 
    0.751623 6.540278e-02 3.473100e-14 0 
    0.753356 6.706683e-02 3.545100e-14 0 
    0.755092 6.659134e-02 3.503800e-14 0 
    0.756833 6.642527e-02 3.479000e-14 0 
    0.758578 6.718077e-02 3.502400e-14 0 
    0.760326 6.778941e-02 3.517900e-14 0 
    0.762079 6.903546e-02 3.566100e-14 0 
    0.763836 6.838953e-02 3.516500e-14 0 
    0.765597 6.853330e-02 3.507700e-14 0 
    0.767361 6.757953e-02 3.443000e-14 0 
    0.769130 6.679118e-02 3.387200e-14 0 
    0.770904 6.755131e-02 3.410000e-14 0 
    0.772681 6.691778e-02 3.362500e-14 0 
    0.774462 6.243829e-02 3.123000e-14 0 
    0.776247 6.627753e-02 3.299800e-14 0 
    0.778037 6.226947e-02 3.086000e-14 0 
    0.779830 6.594614e-02 3.253200e-14 0 
    0.781628 6.746840e-02 3.313000e-14 0 
    0.783430 6.652777e-02 3.251800e-14 0 
    0.785236 6.529953e-02 3.177100e-14 0 
    0.787046 6.573925e-02 3.183800e-14 0 
    0.788860 6.725612e-02 3.242300e-14 0 
    0.790679 6.865028e-02 3.294300e-14 0 
    0.792501 6.895237e-02 3.293600e-14 0 
    0.794328 6.973757e-02 3.315800e-14 0 
    0.796159 6.876424e-02 3.254500e-14 0 
    0.797995 6.843434e-02 3.224000e-14 0 
    0.799834 6.701645e-02 3.142700e-14 0 
    0.801678 6.777783e-02 3.163800e-14 0 
    0.803526 6.870619e-02 3.192400e-14 0 
    0.805378 6.932814e-02 3.206500e-14 0 
    0.807235 6.979374e-02 3.213200e-14 0 
    0.809096 7.010064e-02 3.212500e-14 0 
    0.810961 6.739457e-02 3.074300e-14 0 
    0.812831 7.023180e-02 3.189000e-14 0 
    0.814704 7.185235e-02 3.247600e-14 0 
    0.816582 7.003909e-02 3.151100e-14 0 
    0.818465 7.083587e-02 3.172300e-14 0 
    0.820352 7.180443e-02 3.200900e-14 0 
    0.822243 7.262038e-02 3.222400e-14 0 
    0.824138 7.160842e-02 3.162900e-14 0 
    0.826038 7.208909e-02 3.169500e-14 0 
    0.827942 6.741774e-02 2.950500e-14 0 
    0.829851 7.172547e-02 3.124600e-14 0 
    0.831764 6.801163e-02 2.949200e-14 0 
    0.833681 7.507186e-02 3.240400e-14 0 
    0.835603 7.522989e-02 3.232300e-14 0 
    0.837529 7.067859e-02 3.022800e-14 0 
    0.839460 7.148171e-02 3.043100e-14 0 
    0.841395 7.097390e-02 3.007600e-14 0 
    0.843335 7.244425e-02 3.055800e-14 0 
    0.845279 7.343358e-02 3.083300e-14 0 
    0.847227 7.174585e-02 2.998600e-14 0 
    0.849180 7.476674e-02 3.110500e-14 0 
    0.851138 7.372343e-02 3.053000e-14 0 
    0.853100 7.320008e-02 3.017400e-14 0 
    0.855067 7.437151e-02 3.051600e-14 0 
    0.857038 7.384315e-02 3.016000e-14 0 
    0.859014 6.826605e-02 2.775400e-14 0 
    0.860994 7.449185e-02 3.014600e-14 0 
    0.862979 4.819662e-02 1.941500e-14 0 
    0.864968 7.497407e-02 3.006300e-14 0 
    0.866962 7.547549e-02 3.012500e-14 0 
    0.868960 7.289653e-02 2.896200e-14 0 
    0.870964 7.491972e-02 2.962900e-14 0 
    0.872971 7.629674e-02 3.003500e-14 0 
    0.874984 6.315409e-02 2.474700e-14 0 
    0.877001 7.282899e-02 2.840700e-14 0 
    0.879023 7.365458e-02 2.859700e-14 0 
    0.881049 7.710724e-02 2.980000e-14 0 
    0.883080 7.516004e-02 2.891400e-14 0 
    0.885116 7.707126e-02 2.951300e-14 0 
    0.887156 7.740857e-02 2.950600e-14 0 
    0.889201 7.828506e-02 2.970300e-14 0 
    0.891251 7.754762e-02 2.928800e-14 0 
    0.893305 7.735220e-02 2.908000e-14 0 
    0.895365 7.052901e-02 2.639300e-14 0 
    0.897429 7.555527e-02 2.814400e-14 0 
    0.899498 7.693970e-02 2.852800e-14 0 
    0.901571 7.727849e-02 2.852200e-14 0 
    0.903650 7.550129e-02 2.773800e-14 0 
    0.905733 7.258477e-02 2.654400e-14 0 
    0.907820 7.633708e-02 2.778800e-14 0 
    0.909913 7.423877e-02 2.690000e-14 0 
    0.912011 7.353904e-02 2.652400e-14 0 
    0.914113 8.287228e-02 2.975300e-14 0 
    0.916220 7.750166e-02 2.769700e-14 0 
    0.918333 7.197869e-02 2.560500e-14 0 
    0.920450 7.926667e-02 2.806800e-14 0 
    0.922571 7.481497e-02 2.637000e-14 0 
    0.924698 7.479551e-02 2.624200e-14 0 
    0.926830 6.994663e-02 2.442800e-14 0 
    0.928966 7.685393e-02 2.671700e-14 0 
    0.931108 7.577827e-02 2.622200e-14 0 
    0.933254 7.646184e-02 2.633700e-14 0 
    0.935406 7.786193e-02 2.669600e-14 0 
    0.937562 7.485463e-02 2.554700e-14 0 
    0.939723 7.246255e-02 2.461700e-14 0 
    0.941890 8.222465e-02 2.780500e-14 0 
    0.944061 8.220308e-02 2.767000e-14 0 
    0.946237 8.161546e-02 2.734600e-14 0 
    0.948418 8.272970e-02 2.759200e-14 0 
    0.950605 8.176223e-02 2.714400e-14 0 
    0.952796 8.326224e-02 2.751500e-14 0 
    0.954993 8.362538e-02 2.750800e-14 0 
    0.957194 8.379447e-02 2.743700e-14 0 
    0.959401 8.300620e-02 2.705400e-14 0 
    0.961612 8.317655e-02 2.698500e-14 0 
    0.963829 8.051661e-02 2.600200e-14 0 
    0.966051 8.313120e-02 2.672300e-14 0 
    0.968278 8.465563e-02 2.708800e-14 0 
    0.970510 8.424260e-02 2.683200e-14 0 
    0.972747 8.460933e-02 2.682500e-14 0 
    0.974990 8.400501e-02 2.651100e-14 0 
    0.977237 8.476193e-02 2.662700e-14 0 
    0.979490 8.435051e-02 2.637600e-14 0 
    0.981748 8.413265e-02 2.618700e-14 0 
    0.984011 8.411106e-02 2.606000e-14 0 
    0.986279 8.467107e-02 2.611300e-14 0 
    0.988553 8.387300e-02 2.574800e-14 0 
    0.990832 8.560516e-02 2.615900e-14 0 
    0.993116 8.558276e-02 2.603200e-14 0 
    0.995405 8.536340e-02 2.584600e-14 0 
    0.997700 8.553518e-02 2.577900e-14 0 
    1.000000 8.512000e-02 2.553600e-14 0 
    1.002305 8.588456e-02 2.564700e-14 0 
    1.004615 8.625735e-02 2.564000e-14 0 
    1.006931 8.643244e-02 2.557400e-14 0 
    1.009253 8.640713e-02 2.544900e-14 0 
    1.011580 8.578956e-02 2.515100e-14 0 
    1.016249 8.515123e-02 2.473500e-14 0 
    1.020939 8.668598e-02 2.495000e-14 0 
    1.028017 8.701495e-02 2.470100e-14 0 
    1.032761 8.756748e-02 2.463000e-14 0 
    1.037528 8.812296e-02 2.455900e-14 0 
    1.039921 8.789549e-02 2.438300e-14 0 
    1.059254 8.789897e-02 2.350200e-14 0 
    1.078947 8.738322e-02 2.251900e-14 0 
    1.099006 8.697872e-02 2.160400e-14 0 
    1.119437 8.718090e-02 2.087100e-14 0 
    1.140250 8.778315e-02 2.025500e-14 0 
    1.161449 8.962516e-02 1.993200e-14 0 
    1.180321 8.983080e-02 1.934400e-14 0 
    1.202264 9.003638e-02 1.868700e-14 0 
    1.221799 9.066229e-02 1.822000e-14 0 
    1.241652 9.149987e-02 1.780500e-14 0 
    1.261827 9.192343e-02 1.732000e-14 0 
    1.282330 9.256160e-02 1.688700e-14 0 
    1.303166 9.298439e-02 1.642600e-14 0 
    1.321295 9.362835e-02 1.608900e-14 0 
    1.342764 9.406330e-02 1.565100e-14 0 
    1.361444 9.493162e-02 1.536500e-14 0 
    1.383566 9.603179e-02 1.505000e-14 0 
    1.402813 9.580973e-02 1.460600e-14 0 
    1.422328 9.537176e-02 1.414300e-14 0 
    1.442115 9.603342e-02 1.385300e-14 0 
    1.462177 9.826784e-02 1.378900e-14 0 
    1.482518 9.826630e-02 1.341300e-14 0 
    1.503142 1.010194e-01 1.341300e-14 0 
    1.524053 1.031373e-01 1.332100e-14 0 
    1.545255 1.067591e-01 1.341300e-14 0 
    1.563147 1.084964e-01 1.332100e-14 0 
    1.584892 1.092501e-01 1.304800e-14 0 
    1.603245 1.082479e-01 1.263400e-14 0 
    1.625549 1.115361e-01 1.266300e-14 0 
    1.644372 1.130886e-01 1.254700e-14 0 
    1.667248 1.136070e-01 1.226100e-14 0 
    1.686554 1.141389e-01 1.203800e-14 0 
    1.706082 1.138769e-01 1.173700e-14 0 
    1.725838 1.136106e-01 1.144300e-14 0 
    1.745823 1.115328e-01 1.097800e-14 0 
    1.766039 1.110222e-01 1.067900e-14 0 
    1.786487 1.095016e-01 1.029300e-14 0 
    1.807174 1.084979e-01 9.966500e-15 0 
    1.828101 1.065170e-01 9.561800e-15 0 
    1.845014 1.055400e-01 9.301200e-15 0 
    1.866379 1.048135e-01 9.026900e-15 0 
    1.887991 1.029015e-01 8.660500e-15 0 
    1.905462 1.017237e-01 8.405100e-15 0 
    1.927524 1.021919e-01 8.251600e-15 0 
    1.949844 1.007907e-01 7.953200e-15 0 
    1.967887 9.872366e-02 7.647900e-15 0 
    1.986094 9.759258e-02 7.422300e-15 0 
    2.009093 9.692200e-02 7.203500e-15 0 
    2.027683 9.692172e-02 7.072000e-15 0 
    2.051161 9.581196e-02 6.831900e-15 0 
    2.070141 9.581199e-02 6.707200e-15 0 
    2.089297 9.471529e-02 6.509400e-15 0 
    2.108628 9.406321e-02 6.346600e-15 0 
    2.128139 9.384643e-02 6.216400e-15 0 
    2.147829 9.320139e-02 6.061000e-15 0 
    2.167704 9.255973e-02 5.909400e-15 0 
    2.187762 9.128914e-02 5.721900e-15 0 
    2.208004 9.108001e-02 5.604600e-15 0 
    2.228435 9.024405e-02 5.451800e-15 0 
    2.249056 8.921073e-02 5.291000e-15 0 
    2.269865 8.880139e-02 5.170600e-15 0 
    2.290868 8.798749e-02 5.029700e-15 0 
    2.312064 8.009551e-02 4.495000e-15 0 
    2.333458 7.890388e-02 4.347300e-15 0 
    2.349632 6.933904e-02 3.767900e-15 0 
    2.371374 6.528784e-02 3.483000e-15 0 
    2.393317 6.565586e-02 3.438700e-15 0 
    2.409905 6.002392e-02 3.100600e-15 0 
    2.432205 5.780943e-02 2.931700e-15 0 
    2.454708 5.691171e-02 2.833500e-15 0 
    2.471725 5.299926e-02 2.602500e-15 0 
    2.494594 5.206576e-02 2.510000e-15 0 
    2.511887 4.517236e-02 2.147800e-15 0 
    2.535128 4.406693e-02 2.057000e-15 0 
    2.545470 3.876635e-02 1.794900e-15 2 
    2.555150 4.193225e-02 1.926800e-15 2 
    2.564830 4.335354e-02 1.977100e-15 2 
    2.574500 4.481004e-02 2.028200e-15 2 
    2.584180 4.384321e-02 1.969600e-15 2 
    2.593850 4.390506e-02 1.957700e-15 2 
    2.603530 4.562972e-02 2.019500e-15 2 
    2.613210 4.464258e-02 1.961200e-15 2 
    2.622880 4.863806e-02 2.121000e-15 2 
    2.632560 4.893536e-02 2.118300e-15 2 
    2.642240 5.234678e-02 2.249400e-15 2 
    2.651910 5.250090e-02 2.239600e-15 2 
    2.661590 4.931687e-02 2.088500e-15 2 
    2.671260 4.537309e-02 1.907600e-15 2 
    2.680940 3.993102e-02 1.666700e-15 2 
    2.690620 4.203216e-02 1.741800e-15 2 
    2.700290 4.562576e-02 1.877200e-15 2 
    2.709970 4.434269e-02 1.811400e-15 2 
    2.719650 4.485729e-02 1.819400e-15 2 
    2.729320 4.327978e-02 1.743000e-15 2 
    2.739000 4.424001e-02 1.769100e-15 2 
    2.748670 4.384527e-02 1.741000e-15 2 
    2.758350 4.592741e-02 1.810900e-15 2 
    2.768030 4.594385e-02 1.798900e-15 2 
    2.777700 4.482259e-02 1.742800e-15 2 
    2.787380 4.243435e-02 1.638500e-15 2 
    2.797060 4.318075e-02 1.655800e-15 2 
    2.806730 4.367153e-02 1.663100e-15 2 
    2.816410 4.575273e-02 1.730400e-15 2 
    2.826080 4.650406e-02 1.746800e-15 2 
    2.835760 4.646398e-02 1.733400e-15 2 
    2.845440 4.504909e-02 1.669200e-15 2 
    2.855110 4.309507e-02 1.586000e-15 2 
    2.864790 4.303489e-02 1.573100e-15 2 
    2.874470 4.345840e-02 1.577900e-15 2 
    2.884140 4.545931e-02 1.639500e-15 2 
    2.893820 4.618368e-02 1.654500e-15 2 
    2.903490 4.719257e-02 1.679400e-15 2 
    2.913170 4.648654e-02 1.643300e-15 2 
    2.922850 4.635745e-02 1.627900e-15 2 
    2.932520 4.576173e-02 1.596400e-15 2 
    2.942200 4.401563e-02 1.525400e-15 2 
    2.951880 4.785507e-02 1.647600e-15 2 
    2.961550 4.841177e-02 1.655900e-15 2 
    2.971230 4.861694e-02 1.652100e-15 2 
    2.980900 4.578538e-02 1.545800e-15 2 
    2.990580 4.692393e-02 1.574000e-15 2 
    3.000260 4.701515e-02 1.566900e-15 2 
    3.009930 4.917292e-02 1.628300e-15 2 
    3.019610 4.681812e-02 1.540400e-15 2 
    3.029290 4.639076e-02 1.516600e-15 2 
    3.038960 4.271623e-02 1.387600e-15 2 
    3.048640 4.404214e-02 1.421600e-15 2 
    3.058310 4.674136e-02 1.499200e-15 2 
    3.067990 4.743618e-02 1.511900e-15 2 
    3.077670 4.616047e-02 1.462000e-15 2 
    3.087340 4.747406e-02 1.494200e-15 2 
    3.097020 4.335373e-02 1.356000e-15 2 
    3.106700 4.405305e-02 1.369300e-15 2 
    3.116370 4.345366e-02 1.342300e-15 2 
    3.126050 4.640487e-02 1.424600e-15 2 
    3.135720 4.717420e-02 1.439300e-15 2 
    3.145400 4.669092e-02 1.415800e-15 2 
    3.155080 4.496462e-02 1.355100e-15 2 
    3.164750 4.618213e-02 1.383300e-15 2 
    3.174430 5.053955e-02 1.504600e-15 2 
    3.184110 5.168636e-02 1.529400e-15 2 
    3.193780 4.896451e-02 1.440100e-15 2 
    3.203460 5.039745e-02 1.473300e-15 2 
    3.213130 4.493782e-02 1.305800e-15 2 
    3.222810 4.576986e-02 1.322000e-15 2 
    3.232490 4.571434e-02 1.312500e-15 2 
    3.242160 5.002471e-02 1.427700e-15 2 
    3.251840 4.974580e-02 1.411300e-15 2 
    3.261520 5.355278e-02 1.510300e-15 2 
    3.271190 5.669579e-02 1.589500e-15 2 
    3.280870 6.359076e-02 1.772300e-15 2 
    3.290540 7.038335e-02 1.950100e-15 2 
    3.300220 8.238657e-02 2.269300e-15 2 
    3.309900 1.040365e-01 2.848900e-15 2 
    3.319570 1.280177e-01 3.485200e-15 2 
    3.329250 1.341079e-01 3.629800e-15 2 
    3.338930 1.279025e-01 3.441800e-15 2 
    3.348600 9.492655e-02 2.539700e-15 2 
    3.358280 7.833730e-02 2.083800e-15 2 
    3.367950 6.779763e-02 1.793100e-15 2 
    3.377630 6.249894e-02 1.643500e-15 2 
    3.387310 5.975974e-02 1.562500e-15 2 
    3.396980 6.363635e-02 1.654400e-15 2 
    3.406660 6.253728e-02 1.616600e-15 2 
    3.416340 6.348451e-02 1.631800e-15 2 
    3.426010 5.927852e-02 1.515100e-15 2 
    3.435690 6.178982e-02 1.570400e-15 2 
    3.445360 5.818131e-02 1.470400e-15 2 
    3.455040 6.188694e-02 1.555300e-15 2 
    3.464720 5.876497e-02 1.468600e-15 2 
    3.474390 5.999881e-02 1.491100e-15 2 
    3.484070 6.136944e-02 1.516700e-15 2 
    3.493750 6.076698e-02 1.493500e-15 2 
    3.503420 5.829718e-02 1.424900e-15 2 
    3.513100 5.604855e-02 1.362400e-15 2 
    3.522770 5.443399e-02 1.315900e-15 2 
    3.532450 5.543650e-02 1.332800e-15 2 
    3.542130 5.324813e-02 1.273200e-15 2 
    3.551800 5.409854e-02 1.286500e-15 2 
    3.561480 4.848724e-02 1.146800e-15 2 
    3.571160 4.892547e-02 1.150900e-15 2 
    3.580830 4.894289e-02 1.145100e-15 2 
    3.590510 5.091817e-02 1.184900e-15 2 
    3.600180 4.661314e-02 1.078900e-15 2 
    3.609860 4.820200e-02 1.109700e-15 2 
    3.619540 4.753068e-02 1.088400e-15 2 
    3.629210 4.845233e-02 1.103600e-15 2 
    3.638890 4.898480e-02 1.109800e-15 2 
    3.648570 4.795005e-02 1.080600e-15 2 
    3.658240 4.371063e-02 9.798600e-16 2 
    3.667920 4.704288e-02 1.049000e-15 2 
    3.677590 4.812527e-02 1.067500e-15 2 
    3.687270 5.071293e-02 1.119000e-15 2 
    3.696950 4.776314e-02 1.048400e-15 2 
    3.706620 4.499212e-02 9.824300e-16 2 
    3.716300 4.372665e-02 9.498300e-16 2 
    3.725980 4.723435e-02 1.020700e-15 2 
    3.735650 4.754031e-02 1.022000e-15 2 
    3.745330 4.849773e-02 1.037200e-15 2 
    3.755000 4.793069e-02 1.019800e-15 2 
    3.764680 4.741752e-02 1.003700e-15 2 
    3.774360 4.779939e-02 1.006600e-15 2 
    3.784030 4.691439e-02 9.829200e-16 2 
    3.793710 4.326738e-02 9.018900e-16 2 
    3.803390 4.298071e-02 8.913600e-16 2 
    3.813060 4.319227e-02 8.912100e-16 2 
    3.822740 4.978765e-02 1.022100e-15 2 
    3.832410 5.108266e-02 1.043400e-15 2 
    3.842090 5.245800e-02 1.066100e-15 2 
    3.851770 5.004722e-02 1.012000e-15 2 
    3.861440 4.671777e-02 9.399500e-16 2 
    3.871120 4.739686e-02 9.488500e-16 2 
    3.880800 4.815128e-02 9.591500e-16 2 
    3.890470 4.634922e-02 9.186700e-16 2 
    3.900150 4.657305e-02 9.185300e-16 2 
    3.909820 4.128936e-02 8.103000e-16 2 
    3.919500 3.973403e-02 7.759300e-16 2 
    3.929180 4.222829e-02 8.205800e-16 2 
    3.938850 4.070601e-02 7.871200e-16 2 
    3.948530 4.360356e-02 8.390200e-16 2 
    3.958210 4.558177e-02 8.728000e-16 2 
    3.967880 4.860143e-02 9.260900e-16 2 
    3.977560 4.856093e-02 9.208200e-16 2 
    3.987230 4.375396e-02 8.256500e-16 2 
    3.996910 4.528409e-02 8.503900e-16 2 
    4.006590 4.370579e-02 8.167900e-16 2 
    4.016260 4.802703e-02 8.932300e-16 2 
    4.025940 4.768990e-02 8.827000e-16 2 
    4.035620 4.908723e-02 9.042100e-16 2 
    4.045290 4.560696e-02 8.360900e-16 2 
    4.054970 4.485262e-02 8.183400e-16 2 
    4.064640 4.699923e-02 8.534300e-16 2 
    4.074320 5.743629e-02 1.038000e-15 2 
    4.084000 7.331557e-02 1.318700e-15 2 
    4.093670 9.131507e-02 1.634700e-15 2 
    4.103350 8.333431e-02 1.484800e-15 2 
    4.113030 6.313995e-02 1.119700e-15 2 
    4.122700 4.974978e-02 8.781100e-16 2 
    4.132380 4.564224e-02 8.018400e-16 2 
    4.142050 4.284055e-02 7.491100e-16 2 
    4.151730 4.286348e-02 7.460200e-16 2 
    4.161410 4.154544e-02 7.197200e-16 2 
    4.171080 4.420287e-02 7.622100e-16 2 
    4.180760 4.644164e-02 7.971100e-16 2 
    4.190440 4.688288e-02 8.009700e-16 2 
    4.200110 4.208184e-02 7.156400e-16 2 
    4.209790 4.190386e-02 7.093400e-16 2 
    4.219460 3.868004e-02 6.517700e-16 2 
    4.229140 4.121861e-02 6.913700e-16 2 
    4.238820 3.907712e-02 6.524600e-16 2 
    4.248490 4.092461e-02 6.802000e-16 2 
    4.258170 4.012916e-02 6.639500e-16 2 
    4.267850 4.242774e-02 6.988000e-16 2 
    4.277520 4.314169e-02 7.073500e-16 2 
    4.287200 4.283540e-02 6.991600e-16 2 
    4.296870 4.033078e-02 6.553200e-16 2 
    4.306550 3.936097e-02 6.366900e-16 2 
    4.316230 3.835326e-02 6.176100e-16 2 
    4.325900 3.845419e-02 6.164700e-16 2 
    4.335580 3.735265e-02 5.961400e-16 2 
    4.345260 3.668949e-02 5.829500e-16 2 
    4.354930 3.984571e-02 6.302900e-16 2 
    4.364610 4.114762e-02 6.480000e-16 2 
    4.374280 4.089133e-02 6.411200e-16 2 
    4.383960 3.675846e-02 5.737800e-16 2 
    4.393640 3.599952e-02 5.594600e-16 2 
    4.403310 3.743203e-02 5.791700e-16 2 
    4.412990 3.897817e-02 6.004500e-16 2 
    4.422670 3.939321e-02 6.041900e-16 2 
    4.432340 3.982433e-02 6.081400e-16 2 
    4.442020 3.926972e-02 5.970600e-16 2 
    4.451690 3.574754e-02 5.411500e-16 2 
    4.461370 3.472885e-02 5.234500e-16 2 
    4.471050 3.632502e-02 5.451400e-16 2 
    4.480720 4.027751e-02 6.018500e-16 2 
    4.490400 3.885409e-02 5.780800e-16 2 
    4.500080 3.919459e-02 5.806400e-16 2 
    4.509750 3.658507e-02 5.396600e-16 2 
    4.519430 3.586061e-02 5.267100e-16 2 
    4.529100 3.354176e-02 4.905500e-16 2 
    4.538780 3.208188e-02 4.672000e-16 2 
    4.548460 3.227266e-02 4.679800e-16 2 
    4.558130 3.263511e-02 4.712300e-16 2 
    4.567810 3.443124e-02 4.950600e-16 2 
    4.577490 3.599168e-02 5.153100e-16 2 
    4.587160 3.940823e-02 5.618500e-16 2 
    4.596840 3.962755e-02 5.626000e-16 2 
    4.606510 4.120346e-02 5.825200e-16 2 
    4.616190 3.719736e-02 5.236800e-16 2 
    4.625870 3.293042e-02 4.616700e-16 2 
    4.635540 3.298515e-02 4.605100e-16 2 
    4.645220 3.291447e-02 4.576100e-16 2 
    4.654900 4.329718e-02 5.994600e-16 2 
    4.664570 4.585253e-02 6.322100e-16 2 
    4.674250 4.901372e-02 6.730000e-16 2 
    4.683920 5.225676e-02 7.145700e-16 2 
    4.693600 5.828519e-02 7.937200e-16 2 
    4.703280 5.584186e-02 7.573200e-16 2 
    4.712950 5.010930e-02 6.767900e-16 2 
    4.722630 4.020306e-02 5.407700e-16 2 
    4.732310 3.903481e-02 5.229100e-16 2 
    4.741980 3.663031e-02 4.887000e-16 2 
    4.751660 3.850649e-02 5.116400e-16 2 
    4.761330 3.474521e-02 4.597900e-16 2 
    4.771010 3.710977e-02 4.890900e-16 2 
    4.780690 3.713632e-02 4.874600e-16 2 
    4.790360 4.270156e-02 5.582500e-16 2 
    4.800040 3.588309e-02 4.672200e-16 2 
    4.809720 3.869447e-02 5.018000e-16 2 
    4.819390 3.760993e-02 4.857800e-16 2 
    4.829070 4.241271e-02 5.456200e-16 2 
    4.838740 4.419826e-02 5.663200e-16 2 
    4.848420 4.602783e-02 5.874100e-16 2 
    4.858100 4.264725e-02 5.421000e-16 2 
    4.867770 4.069648e-02 5.152500e-16 2 
    4.877450 4.156663e-02 5.241800e-16 2 
    4.887130 4.214020e-02 5.293100e-16 2 
    4.896800 3.717810e-02 4.651400e-16 2 
    4.906480 3.571150e-02 4.450300e-16 2 
    4.916150 3.565261e-02 4.425500e-16 2 
    4.925830 3.933243e-02 4.863100e-16 2 
    4.935510 3.623521e-02 4.462600e-16 2 
    4.945180 3.958255e-02 4.855800e-16 2 
    4.954960 3.729884e-02 4.557600e-16 2 
    5.004510 3.799178e-02 4.550800e-16 0 
    5.054555 3.869750e-02 4.544000e-16 0 
    5.105100 3.941450e-02 4.537000e-16 0 
    5.156152 4.014471e-02 4.530000e-16 0 
    5.207713 4.088743e-02 4.522900e-16 0 
    5.217250 4.102553e-02 4.521600e-16 3 
    5.247490 4.834522e-02 5.267100e-16 3 
    5.277730 5.145179e-02 5.541500e-16 3 
    5.307970 4.740273e-02 5.047400e-16 3 
    5.338210 4.936162e-02 5.196600e-16 3 
    5.368460 5.589421e-02 5.818200e-16 3 
    5.398700 6.031368e-02 6.208100e-16 3 
    5.428940 4.490959e-02 4.571200e-16 3 
    5.459180 4.340358e-02 4.369100e-16 3 
    5.489420 4.143589e-02 4.125200e-16 3 
    5.519670 4.321811e-02 4.255600e-16 3 
    5.549910 4.807191e-02 4.682100e-16 3 
    5.580150 5.109550e-02 4.922800e-16 3 
    5.610390 5.467569e-02 5.211100e-16 3 
    5.640630 5.789792e-02 5.459200e-16 3 
    5.670880 6.671574e-02 6.223700e-16 3 
    5.701120 7.131974e-02 6.582800e-16 3 
    5.731360 7.362661e-02 6.724200e-16 3 
    5.761600 7.733570e-02 6.989000e-16 3 
    5.791840 7.682011e-02 6.870100e-16 3 
    5.822090 7.514453e-02 6.650600e-16 3 
    5.852330 7.269856e-02 6.367800e-16 3 
    5.882570 7.305729e-02 6.333600e-16 3 
    5.912810 7.833434e-02 6.721800e-16 3 
    5.943050 8.351965e-02 7.094000e-16 3 
    5.973300 8.330996e-02 7.004700e-16 3 
    6.003540 8.589166e-02 7.149200e-16 3 
    6.033780 1.002720e-01 8.262700e-16 3 
    6.064020 1.201794e-01 9.804600e-16 3 
    6.094260 1.266598e-01 1.023100e-15 3 
    6.124510 1.342845e-01 1.074000e-15 3 
    6.154750 1.497939e-01 1.186300e-15 3 
    6.184990 1.938973e-01 1.520600e-15 3 
    6.215230 2.834087e-01 2.201000e-15 3 
    6.245470 3.972360e-01 3.055200e-15 3 
    6.275720 4.413970e-01 3.362200e-15 3 
    6.305960 4.085602e-01 3.082300e-15 3 
    6.336200 3.444650e-01 2.574000e-15 3 
    6.366440 2.842748e-01 2.104100e-15 3 
    6.396680 2.358622e-01 1.729300e-15 3 
    6.426930 2.024379e-01 1.470300e-15 3 
    6.457170 1.816236e-01 1.306800e-15 3 
    6.487410 1.647826e-01 1.174600e-15 3 
    6.517650 1.499111e-01 1.058700e-15 3 
    6.547890 1.416928e-01 9.914400e-16 3 
    6.578140 1.418987e-01 9.837700e-16 3 
    6.608380 1.330733e-01 9.141600e-16 3 
    6.638620 1.390184e-01 9.463200e-16 3 
    6.668860 1.429548e-01 9.643100e-16 3 
    6.699100 1.463126e-01 9.780700e-16 3 
    6.729350 1.455085e-01 9.639700e-16 3 
    6.759590 1.468786e-01 9.643600e-16 3 
    6.789830 1.504071e-01 9.787500e-16 3 
    6.820070 1.501761e-01 9.686000e-16 3 
    6.850310 1.481149e-01 9.468900e-16 3 
    6.880560 1.461120e-01 9.258900e-16 3 
    6.910800 1.494671e-01 9.388800e-16 3 
    6.941040 1.552248e-01 9.665700e-16 3 
    6.971280 1.592402e-01 9.829900e-16 3 
    7.001520 1.693195e-01 1.036200e-15 3 
    7.031770 2.149574e-01 1.304200e-15 3 
    7.062010 2.218140e-01 1.334300e-15 3 
    7.092250 1.904358e-01 1.135800e-15 3 
    7.122490 1.892900e-01 1.119400e-15 3 
    7.152730 2.119623e-01 1.242900e-15 3 
    7.182980 2.095969e-01 1.218700e-15 3 
    7.213220 2.119898e-01 1.222300e-15 3 
    7.243460 2.189128e-01 1.251700e-15 3 
    7.273700 2.275518e-01 1.290300e-15 3 
    7.303940 2.372898e-01 1.334400e-15 3 
    7.334190 2.523305e-01 1.407300e-15 3 
    7.364430 2.639428e-01 1.460000e-15 3 
    7.394670 2.863834e-01 1.571200e-15 3 
    7.424910 3.079890e-01 1.676000e-15 3 
    7.455150 3.428129e-01 1.850400e-15 3 
    7.485400 3.823943e-01 2.047400e-15 3 
    7.515640 4.253497e-01 2.259100e-15 3 
    7.545880 4.612354e-01 2.430100e-15 3 
    7.576120 4.766105e-01 2.491100e-15 3 
    7.636600 5.679168e-01 2.921500e-15 3 
    7.697090 5.964806e-01 3.020400e-15 3 
    7.757570 5.864732e-01 2.923600e-15 3 
    7.818050 5.704507e-01 2.799900e-15 3 
    7.878540 5.546079e-01 2.680500e-15 3 
    7.939020 5.238681e-01 2.493500e-15 3 
    7.999510 4.621301e-01 2.166500e-15 3 
    8.059990 4.054585e-01 1.872400e-15 3 
    8.120470 3.547462e-01 1.613900e-15 3 
    8.180959 3.153652e-01 1.413600e-15 3 
    8.241440 2.940314e-01 1.298700e-15 3 
    8.301920 2.876340e-01 1.252000e-15 3 
    8.362409 2.967825e-01 1.273200e-15 3 
    8.422890 3.055368e-01 1.292000e-15 3 
    8.483370 3.114277e-01 1.298200e-15 3 
    8.543860 3.347667e-01 1.375800e-15 3 
    8.604340 3.740231e-01 1.515600e-15 3 
    8.664830 3.948919e-01 1.577900e-15 3 
    8.725310 3.815180e-01 1.503400e-15 3 
    8.785791 3.435732e-01 1.335300e-15 3 
    8.846280 2.955754e-01 1.133100e-15 3 
    8.906760 2.522045e-01 9.537500e-16 3 
    8.967241 2.271059e-01 8.472900e-16 3 
    9.027730 2.380205e-01 8.761500e-16 3 
    9.088210 2.500030e-01 9.080500e-16 3 
    9.148690 2.052260e-01 7.355900e-16 3 
    9.209180 1.909163e-01 6.753400e-16 3 
    9.269660 1.956320e-01 6.830200e-16 3 
    9.330150 1.926744e-01 6.640000e-16 3 
    9.390630 1.923292e-01 6.543000e-16 3 
    9.451110 1.965801e-01 6.602300e-16 3 
    9.511599 1.957722e-01 6.491800e-16 3 
    9.572080 1.983095e-01 6.493100e-16 3 
    9.632560 2.003131e-01 6.476600e-16 3 
    9.693050 2.057525e-01 6.569700e-16 3 
    9.753530 2.150159e-01 6.780600e-16 3 
    9.814009 2.130258e-01 6.635300e-16 3 
    9.874500 2.107489e-01 6.484200e-16 3 
    9.934980 2.077387e-01 6.314000e-16 3 
    9.995470 2.090105e-01 6.276000e-16 3 
   10.055950 2.108396e-01 6.255000e-16 3 
   10.116430 2.122985e-01 6.223200e-16 3 
   10.176920 2.162570e-01 6.264100e-16 3 
   10.237400 2.179197e-01 6.237900e-16 3 
   10.297880 2.175505e-01 6.154400e-16 3 
   10.358370 2.208184e-01 6.174100e-16 3 
   10.418850 2.265019e-01 6.259700e-16 3 
   10.479330 2.366799e-01 6.465700e-16 3 
   10.539820 2.648259e-01 7.151800e-16 3 
   10.600300 3.131239e-01 8.359900e-16 3 
   10.660791 3.091006e-01 8.159100e-16 3 
   10.721270 2.837625e-01 7.406000e-16 3 
   10.781750 2.849425e-01 7.353600e-16 3 
   10.842241 2.852844e-01 7.280500e-16 3 
   10.902720 2.889792e-01 7.293200e-16 3 
   10.963200 2.972903e-01 7.420400e-16 3 
   11.023690 3.191404e-01 7.878600e-16 3 
   11.084170 3.602221e-01 8.796000e-16 3 
   11.144651 3.928797e-01 9.489600e-16 3 
   11.205140 4.363042e-01 1.042500e-15 3 
   11.265620 6.104996e-01 1.443100e-15 3 
   11.326110 8.051757e-01 1.883000e-15 3 
   11.386590 8.022584e-01 1.856300e-15 3 
   11.447070 6.842233e-01 1.566500e-15 3 
   11.507560 5.768828e-01 1.306900e-15 3 
   11.568040 5.098078e-01 1.142900e-15 3 
   11.628520 4.609734e-01 1.022700e-15 3 
   11.689009 4.455919e-01 9.783700e-16 3 
   11.749490 4.272709e-01 9.285100e-16 3 
   11.809970 4.154228e-01 8.935400e-16 3 
   11.870459 4.144944e-01 8.824800e-16 3 
   11.930940 4.224252e-01 8.902700e-16 3 
   11.991430 4.376622e-01 9.131000e-16 3 
   12.051910 4.529721e-01 9.355800e-16 3 
   12.112390 4.583318e-01 9.372200e-16 3 
   12.172880 4.572409e-01 9.257200e-16 3 
   12.233360 4.572013e-01 9.165100e-16 3 
   12.293841 4.546851e-01 9.025200e-16 3 
   12.354330 4.672649e-01 9.184300e-16 3 
   12.414810 4.899559e-01 9.536699e-16 3 
   12.475291 5.069637e-01 9.772300e-16 3 
   12.535780 5.182458e-01 9.893600e-16 3 
   12.596260 5.359201e-01 1.013300e-15 3 
   12.656750 5.675115e-01 1.062800e-15 3 
   12.717230 5.919781e-01 1.098100e-15 3 
   12.777710 6.192827e-01 1.137900e-15 3 
   12.838200 6.876814e-01 1.251700e-15 3 
   12.898680 9.185615e-01 1.656300e-15 3 
   12.959160 1.020514e+00 1.823000e-15 3 
   13.019651 6.457251e-01 1.142800e-15 3 
   13.080130 5.022169e-01 8.806200e-16 3 
   13.140609 4.793935e-01 8.328800e-16 3 
   13.201100 4.760275e-01 8.194700e-16 3 
   13.261580 4.767998e-01 8.133300e-16 3 
   13.322059 4.801707e-01 8.116600e-16 3 
   13.382550 4.876513e-01 8.168700e-16 3 
   13.443030 4.911052e-01 8.152700e-16 3 
   13.503520 4.887942e-01 8.041800e-16 3 
   13.564000 5.010323e-01 8.169800e-16 3 
   13.624480 5.033447e-01 8.134800e-16 3 
   13.684970 5.112576e-01 8.189800e-16 3 
   13.745450 5.181986e-01 8.228100e-16 3 
   13.805930 5.104049e-01 8.033500e-16 3 
   13.866420 5.072283e-01 7.914000e-16 3 
   13.926900 5.099429e-01 7.887400e-16 3 
   13.987380 5.097186e-01 7.815900e-16 3 
   14.047870 5.094861e-01 7.745200e-16 3 
   14.108350 5.151166e-01 7.763800e-16 3 
   14.168841 5.270917e-01 7.876600e-16 3 
   14.229320 5.220240e-01 7.734700e-16 3 
   14.289800 5.273083e-01 7.747000e-16 3 
   14.350291 5.134611e-01 7.480100e-16 3 
   14.410770 4.998139e-01 7.220300e-16 3 
   14.471250 4.875928e-01 6.985000e-16 3 
   14.577409 5.419835e-01 7.651500e-16 3 
   14.662091 5.444362e-01 7.597600e-16 3 
   14.746770 5.528234e-01 7.626300e-16 3 
   14.831450 5.588459e-01 7.621600e-16 3 
   14.916120 5.597642e-01 7.547700e-16 3 
   15.000800 5.689432e-01 7.585100e-16 3 
   15.085480 5.764771e-01 7.599500e-16 3 
   15.170150 5.899318e-01 7.690300e-16 3 
   15.254830 6.032537e-01 7.776900e-16 3 
   15.339509 6.106049e-01 7.785000e-16 3 
   15.424180 6.266188e-01 7.901700e-16 3 
   15.508859 6.418242e-01 8.005300e-16 3 
   15.593541 7.497874e-01 9.250600e-16 3 
   15.678211 9.750316e-01 1.190000e-15 3 
   15.762891 9.505585e-01 1.147700e-15 3 
   15.847570 7.422270e-01 8.866100e-16 3 
   15.932239 7.179166e-01 8.484800e-16 3 
   16.016920 7.403709e-01 8.657900e-16 3 
   16.101600 7.601980e-01 8.796500e-16 3 
   16.186280 7.750792e-01 8.875100e-16 3 
   16.270950 8.041329e-01 9.112200e-16 3 
   16.355631 8.234569e-01 9.234800e-16 3 
   16.440309 8.749086e-01 9.711000e-16 3 
   16.524981 9.452037e-01 1.038400e-15 3 
   16.609659 9.801124e-01 1.065800e-15 3 
   16.694339 9.733167e-01 1.047700e-15 3 
   16.779011 9.656658e-01 1.029000e-15 3 
   16.863689 9.795133e-01 1.033300e-15 3 
   16.948370 9.901413e-01 1.034100e-15 3 
   17.033039 1.008086e+00 1.042400e-15 3 
   17.117720 1.045092e+00 1.070000e-15 3 
   17.202400 1.087121e+00 1.102100e-15 3 
   17.287069 1.090876e+00 1.095100e-15 3 
   17.371750 1.095956e+00 1.089500e-15 3 
   17.456430 1.116215e+00 1.098900e-15 3 
   17.541109 1.141737e+00 1.113200e-15 3 
   17.625780 1.132489e+00 1.093600e-15 3 
   17.710461 1.112553e+00 1.064100e-15 3 
   17.795139 1.118151e+00 1.059300e-15 3 
   17.879811 1.137129e+00 1.067100e-15 3 
   17.964491 1.150184e+00 1.069200e-15 3 
   18.049170 1.174410e+00 1.081500e-15 3 
   18.133841 1.181728e+00 1.078100e-15 3 
   18.218519 1.185266e+00 1.071300e-15 3 
   18.303200 1.198991e+00 1.073700e-15 3 
   18.387870 1.228480e+00 1.090000e-15 3 
   18.472550 1.243006e+00 1.092800e-15 3 
   18.557230 1.262578e+00 1.099900e-15 3 
   18.641898 1.274473e+00 1.100200e-15 3 
   18.726580 1.315419e+00 1.125300e-15 3 
   18.811261 1.702438e+00 1.443300e-15 3 
   18.895941 1.940126e+00 1.630100e-15 3 
   18.980609 1.600171e+00 1.332500e-15 3 
   19.065291 1.365614e+00 1.127100e-15 3 
   19.149969 1.382417e+00 1.130900e-15 3 
   19.234641 1.404658e+00 1.139000e-15 3 
   19.319320 1.415063e+00 1.137400e-15 3 
   19.404000 1.403147e+00 1.118000e-15 3 
   19.488670 1.418331e+00 1.120300e-15 3 
   19.573352 1.465291e+00 1.147400e-15 3 
   19.658030 1.478770e+00 1.148000e-15 3 
   19.742700 1.475685e+00 1.135800e-15 3 
   19.827380 1.483261e+00 1.131900e-15 3 
   19.912059 1.500319e+00 1.135200e-15 3 
   19.996731 1.508440e+00 1.131700e-15 3 
   20.081409 1.517075e+00 1.128600e-15 3 
   20.166091 1.530982e+00 1.129400e-15 3 
   20.250770 1.539765e+00 1.126400e-15 3 
   20.335439 1.554597e+00 1.127800e-15 3 
   20.420120 1.557425e+00 1.120500e-15 3 
   20.589470 1.562168e+00 1.105500e-15 3 
   20.758830 1.650602e+00 1.149100e-15 3 
   20.928181 1.674723e+00 1.147100e-15 3 
   21.097530 1.677604e+00 1.130700e-15 3 
   21.266889 1.737059e+00 1.152200e-15 3 
   21.436239 1.777241e+00 1.160300e-15 3 
   21.605600 1.790808e+00 1.150900e-15 3 
   21.774950 1.867197e+00 1.181400e-15 3 
   21.944300 1.902934e+00 1.185500e-15 3 
   22.113661 1.929160e+00 1.183500e-15 3 
   22.283011 1.992751e+00 1.204000e-15 3 
   22.452359 2.014249e+00 1.198700e-15 3 
   22.621719 2.040487e+00 1.196200e-15 3 
   22.791070 2.119459e+00 1.224100e-15 3 
   22.960430 2.137545e+00 1.216400e-15 3 
   23.129780 2.164021e+00 1.213500e-15 3 
   23.299130 2.222245e+00 1.228100e-15 3 
   23.468491 2.294875e+00 1.250000e-15 3 
   23.637841 2.309117e+00 1.239800e-15 3 
   23.807191 2.322296e+00 1.229200e-15 3 
   23.976548 2.354304e+00 1.228600e-15 3 
   24.145900 2.370772e+00 1.219900e-15 3 
   24.315259 2.385226e+00 1.210300e-15 3 
   24.484609 2.404979e+00 1.203500e-15 3 
   24.653959 2.441401e+00 1.205000e-15 3 
   24.823320 2.449179e+00 1.192400e-15 3 
   24.992670 2.457309e+00 1.180200e-15 3 
   25.162020 2.484813e+00 1.177400e-15 3 
   25.331381 2.520729e+00 1.178500e-15 3 
   25.500731 2.561698e+00 1.181800e-15 3 
   25.670089 2.587271e+00 1.177900e-15 3 
   25.839439 2.605719e+00 1.170800e-15 3 
   26.008789 2.668849e+00 1.183600e-15 3 
   26.178150 2.742324e+00 1.200500e-15 3 
   26.347500 2.757789e+00 1.191800e-15 3 
   26.516850 2.780463e+00 1.186300e-15 3 
   26.686209 2.800901e+00 1.179900e-15 3 
   26.855559 2.832475e+00 1.178200e-15 3 
   27.024919 2.858575e+00 1.174200e-15 3 
   27.194269 2.937899e+00 1.191800e-15 3 
   27.363622 3.002060e+00 1.202800e-15 3 
   27.532981 3.053486e+00 1.208400e-15 3 
   27.702328 3.058932e+00 1.195800e-15 3 
   27.871678 3.105250e+00 1.199200e-15 3 
   28.041041 3.147821e+00 1.201000e-15 3 
   28.210391 3.204526e+00 1.208000e-15 3 
   28.379750 3.208486e+00 1.195100e-15 3 
   28.549100 3.248794e+00 1.195800e-15 3 
   28.718450 3.285527e+00 1.195100e-15 3 
   28.887809 3.316603e+00 1.192300e-15 3 
   29.057159 3.334777e+00 1.184900e-15 3 
   29.226509 3.345858e+00 1.175100e-15 3 
   29.395869 3.407790e+00 1.183100e-15 3 
   29.565219 3.423567e+00 1.175000e-15 3 
   29.734578 3.494141e+00 1.185600e-15 3 
   29.903931 3.576981e+00 1.200000e-15 3 
   30.073281 3.599823e+00 1.194100e-15 3 
   30.242641 3.656945e+00 1.199500e-15 3 
   30.411991 3.683525e+00 1.194800e-15 3 
   30.581341 3.694424e+00 1.185100e-15 3 
   30.750700 3.767292e+00 1.195200e-15 3 
   30.920050 3.798066e+00 1.191800e-15 3 
   31.089409 3.833665e+00 1.189900e-15 3 
   31.258759 3.883361e+00 1.192300e-15 3 
   31.428109 3.949916e+00 1.199700e-15 3 
   31.597469 4.059494e+00 1.219800e-15 3 
   31.766822 4.098753e+00 1.218500e-15 3 
   31.936172 4.114694e+00 1.210300e-15 3 
   32.105531 4.142989e+00 1.205800e-15 3 
   32.274878 4.229171e+00 1.218000e-15 3 
   32.444241 4.351918e+00 1.240300e-15 3 
   32.613591 4.480433e+00 1.263700e-15 3 
   32.782941 4.539264e+00 1.267100e-15 3 
   32.952300 4.647818e+00 1.284100e-15 3 
   33.121650 4.778357e+00 1.306700e-15 3 
   33.291000 4.870199e+00 1.318300e-15 3 
   33.460363 4.963915e+00 1.330100e-15 3 
   33.629713 5.604272e+00 1.486600e-15 3 
   33.799069 5.796802e+00 1.522300e-15 3 
   33.968419 5.562727e+00 1.446300e-15 3 
   34.137772 5.153732e+00 1.326700e-15 3 
   34.307128 5.163015e+00 1.316000e-15 3 
   34.476478 5.320693e+00 1.342900e-15 3 
   34.645828 5.180639e+00 1.294800e-15 3 
   34.815191 5.380501e+00 1.331700e-15 3 
   34.984538 5.925803e+00 1.452500e-15 3 
