# NGC 0474       
# 
# An Atlas of Galaxy Spectral Energy Distributions from the Ultraviolet to the Mid-Infrared
# Brown et al. (2014)
# http://dx.doi.org/10.5072/03/529D3551F0117
# http://dx.doi.org/10.17909/t9-5bxk-dh29
# 
# The Spectral Energy Distributions of Active Galactic Nuclei
# Brown et al. (2019)
# http://dx.doi.org/10.17909/t9-3dbt-8734
# 
# Column 1: Observed wavelength (um)
# Column 2: f_nu (Jy)
# Column 3: f_lam (erg/s/cm2/A)
# Column 4: Source (0 = model, 1 = Optical Spectrun, 2 = Akari, 3 = Spitzer IRS)
# 
    0.010280 1.142560e-08 3.243500e-17 0 
    0.010471 1.227075e-08 3.357500e-17 0 
    0.010691 1.380180e-08 3.622600e-17 0 
    0.010889 1.555484e-08 3.935600e-17 0 
    0.011092 2.202486e-08 5.370500e-17 0 
    0.011482 2.660281e-08 6.053600e-17 0 
    0.011885 3.068255e-08 6.516500e-17 0 
    0.012190 7.497169e-08 1.513600e-16 0 
    0.012589 8.848630e-08 1.675000e-16 0 
    0.012794 9.547831e-08 1.749900e-16 0 
    0.012912 9.997071e-08 1.798900e-16 0 
    0.013213 1.108895e-07 1.905500e-16 0 
    0.013305 1.224409e-07 2.075000e-16 0 
    0.013490 1.302917e-07 2.147900e-16 0 
    0.013804 1.527198e-07 2.404400e-16 0 
    0.014093 1.682315e-07 2.541100e-16 0 
    0.014421 2.666184e-07 3.846100e-16 0 
    0.014825 4.100960e-07 5.597800e-16 0 
    0.015205 4.590549e-07 5.956800e-16 0 
    0.015631 5.186435e-07 6.368200e-16 0 
    0.016032 5.846121e-07 6.823600e-16 0 
    0.016331 6.366789e-07 7.161700e-16 0 
    0.016711 7.110455e-07 7.638600e-16 0 
    0.017140 7.905217e-07 8.072600e-16 0 
    0.017418 8.528807e-07 8.433600e-16 0 
    0.017824 9.416797e-07 8.892300e-16 0 
    0.018155 1.013642e-06 9.226000e-16 0 
    0.018323 1.061418e-06 9.484500e-16 0 
    0.018750 1.166531e-06 9.954400e-16 0 
    0.019231 1.296875e-06 1.052000e-15 0 
    0.019543 1.389584e-06 1.091500e-15 0 
    0.019953 1.513263e-06 1.140300e-15 0 
    0.020370 1.643842e-06 1.188500e-15 0 
    0.020654 1.741473e-06 1.224700e-15 0 
    0.021184 1.865952e-06 1.247400e-15 0 
    0.021777 2.142290e-06 1.355200e-15 0 
    0.022182 2.306197e-06 1.406100e-15 0 
    0.022491 2.414905e-06 1.432200e-15 0 
    0.022856 2.587605e-06 1.486000e-15 0 
    0.023174 3.961881e-06 2.213200e-15 0 
    0.023605 6.697311e-06 3.605900e-15 0 
    0.024210 9.117747e-06 4.666800e-15 0 
    0.024774 9.117682e-06 4.456700e-15 0 
    0.025410 1.002077e-05 4.656000e-15 0 
    0.025882 8.296438e-06 3.715500e-15 0 
    0.026182 1.025412e-05 4.487600e-15 0 
    0.026607 1.111430e-05 4.709900e-15 0 
    0.027102 1.145237e-05 4.677500e-15 0 
    0.027606 1.177329e-05 4.634600e-15 0 
    0.028119 1.199195e-05 4.550000e-15 0 
    0.028642 1.244219e-05 4.550000e-15 0 
    0.029242 1.229997e-05 4.315300e-15 0 
    0.029854 1.282020e-05 4.315300e-15 0 
    0.030339 1.241356e-05 4.045900e-15 0 
    0.031046 1.317974e-05 4.102200e-15 0 
    0.032063 1.422014e-05 4.149700e-15 0 
    0.033037 1.475340e-05 4.055200e-15 0 
    0.034041 1.513225e-05 3.917600e-15 0 
    0.035075 1.552009e-05 3.784600e-15 0 
    0.035975 1.606578e-05 3.724100e-15 0 
    0.036898 1.686171e-05 3.715500e-15 0 
    0.037757 1.713513e-05 3.605900e-15 0 
    0.038815 1.690008e-05 3.365200e-15 0 
    0.039811 1.798457e-05 3.404200e-15 0 
    0.040832 1.865933e-05 3.357500e-15 0 
    0.041687 1.887547e-05 3.258500e-15 0 
    0.042560 1.900653e-05 3.147900e-15 0 
    0.043351 1.904993e-05 3.041000e-15 0 
    0.044463 1.967403e-05 2.985500e-15 0 
    0.045499 1.994805e-05 2.890800e-15 0 
    0.046345 1.985624e-05 2.773400e-15 0 
    0.047315 2.003943e-05 2.685400e-15 0 
    0.048417 2.055400e-05 2.630400e-15 0 
    0.049431 2.036512e-05 2.500400e-15 0 
    0.050350 2.093589e-05 2.477500e-15 0 
    0.051050 2.088704e-05 2.404400e-15 0 
    0.051642 2.258950e-05 2.541100e-15 0 
    0.052360 2.248544e-05 2.460500e-15 0 
    0.053456 2.238124e-05 2.349700e-15 0 
    0.054450 2.172113e-05 2.197900e-15 0 
    0.055463 2.172168e-05 2.118400e-15 0 
    0.056494 2.295591e-05 2.157800e-15 0 
    0.057412 2.343664e-05 2.133100e-15 0 
    0.058479 2.343698e-05 2.056000e-15 0 
    0.059429 2.365368e-05 2.009200e-15 0 
    0.060534 2.311482e-05 1.892400e-15 0 
    0.061518 2.122706e-05 1.682700e-15 0 
    0.062517 2.420457e-05 1.857900e-15 0 
    0.063533 2.392668e-05 1.778300e-15 0 
    0.064565 2.459775e-05 1.770200e-15 0 
    0.065464 2.437184e-05 1.706100e-15 0 
    0.066374 2.403792e-05 1.636900e-15 0 
    0.066988 2.465373e-05 1.648200e-15 0 
    0.068077 2.505553e-05 1.621900e-15 0 
    0.069024 2.414871e-05 1.520600e-15 0 
    0.069984 2.505531e-05 1.534700e-15 0 
    0.071121 2.403824e-05 1.425700e-15 0 
    0.072111 2.540371e-05 1.465600e-15 0 
    0.073114 2.552017e-05 1.432200e-15 0 
    0.074131 2.569835e-05 1.402900e-15 0 
    0.075162 2.551989e-05 1.355200e-15 0 
    0.076033 2.540372e-05 1.318300e-15 0 
    0.077090 2.376157e-05 1.199500e-15 0 
    0.078163 2.558029e-05 1.256100e-15 0 
    0.079068 2.494031e-05 1.196800e-15 0 
    0.080168 2.552125e-05 1.191300e-15 0 
    0.081096 2.575601e-05 1.174900e-15 0 
    0.082224 2.593438e-05 1.150800e-15 0 
    0.083176 2.605412e-05 1.129800e-15 0 
    0.084140 2.426158e-05 1.028100e-15 0 
    0.085114 2.593493e-05 1.074000e-15 0 
    0.086099 2.581714e-05 1.044800e-15 0 
    0.087096 2.611508e-05 1.032800e-15 0 
    0.088105 2.617512e-05 1.011600e-15 0 
    0.089125 2.617544e-05 9.885900e-16 0 
    0.090157 2.629608e-05 9.705400e-16 0 
    0.091201 2.617528e-05 9.440900e-16 0 
    0.092257 2.660082e-05 9.376000e-16 0 
    0.093111 4.404475e-05 1.524100e-15 0 
    0.094189 6.221631e-05 2.103900e-15 0 
    0.095280 7.923219e-05 2.618300e-15 0 
    0.096161 8.808324e-05 2.857700e-15 0 
    0.097275 9.613825e-05 3.048000e-15 0 
    0.098175 5.609187e-05 1.745900e-15 0 
    0.099312 8.808533e-05 2.679300e-15 0 
    0.100231 8.509511e-05 2.541100e-15 0 
    0.101391 9.702734e-05 2.831500e-15 0 
    0.102329 9.837715e-05 2.818500e-15 0 
    0.103276 6.743714e-05 1.896800e-15 0 
    0.104232 9.118052e-05 2.517800e-15 0 
    0.105196 1.121744e-04 3.041000e-15 0 
    0.106414 1.106349e-04 2.931000e-15 0 
    0.107399 1.011349e-04 2.630400e-15 0 
    0.108393 1.081186e-04 2.760700e-15 0 
    0.109396 9.373332e-05 2.349700e-15 0 
    0.110408 1.114037e-04 2.741700e-15 0 
    0.111429 1.081181e-04 2.612300e-15 0 
    0.112461 1.078703e-04 2.558700e-15 0 
    0.113501 1.002042e-04 2.333500e-15 0 
    0.114288 1.114036e-04 2.558700e-15 0 
    0.115345 1.083649e-04 2.443500e-15 0 
    0.116413 1.096220e-04 2.426700e-15 0 
    0.117490 1.101275e-04 2.393400e-15 0 
    0.118304 8.808514e-05 1.888100e-15 0 
    0.119399 1.083655e-04 2.280400e-15 0 
    0.120504 9.860389e-05 2.037100e-15 0 
    0.121339 8.808372e-05 1.794800e-15 0 
    0.122462 6.529668e-05 1.306200e-15 0 
    0.123311 9.838025e-05 1.941000e-15 0 
    0.124451 1.108893e-04 2.147900e-15 0 
    0.125603 1.142611e-04 2.172800e-15 0 
    0.126474 1.129508e-04 2.118400e-15 0 
    0.127350 1.103799e-04 2.041800e-15 0 
    0.128529 1.182756e-04 2.147900e-15 0 
    0.129420 1.193684e-04 2.138000e-15 0 
    0.130617 1.091152e-04 1.918700e-15 0 
    0.131522 1.103788e-04 1.914300e-15 0 
    0.132434 1.201990e-04 2.056000e-15 0 
    0.133660 1.174623e-04 1.972500e-15 0 
    0.134586 1.119166e-04 1.853600e-15 0 
    0.135519 1.196444e-04 1.954400e-15 0 
    0.136458 1.185461e-04 1.909900e-15 0 
    0.137404 1.132099e-04 1.798900e-15 0 
    0.138676 1.145272e-04 1.786600e-15 0 
    0.139637 1.150541e-04 1.770200e-15 0 
    0.140605 9.837436e-05 1.492800e-15 0 
    0.141579 9.792463e-05 1.465600e-15 0 
    0.142561 1.124304e-04 1.659600e-15 0 
    0.143549 1.106353e-04 1.610700e-15 0 
    0.144544 1.137343e-04 1.633100e-15 0 
    0.145211 1.153136e-04 1.640600e-15 0 
    0.145881 1.155857e-04 1.629400e-15 0 
    0.146555 1.137351e-04 1.588600e-15 0 
    0.147571 1.106354e-04 1.524100e-15 0 
    0.148594 1.111442e-04 1.510100e-15 0 
    0.149624 1.124367e-04 1.506700e-15 0 
    0.150661 1.121772e-04 1.482600e-15 0 
    0.151705 1.093721e-04 1.425700e-15 0 
    0.152405 1.034853e-04 1.336600e-15 0 
    0.152757 1.061418e-04 1.364600e-15 0 
    0.153815 1.068758e-04 1.355200e-15 0 
    0.154525 9.770072e-05 1.227500e-15 0 
    0.155597 9.417049e-05 1.166900e-15 0 
    0.156675 9.373702e-05 1.145600e-15 0 
    0.157761 9.997724e-05 1.205100e-15 0 
    0.158855 1.046912e-04 1.244600e-15 0 
    0.159588 1.058973e-04 1.247400e-15 0 
    0.160694 1.073702e-04 1.247400e-15 0 
    0.161808 1.056524e-04 1.210600e-15 0 
    0.162930 1.054149e-04 1.191300e-15 0 
    0.163682 1.042112e-04 1.166900e-15 0 
    0.164816 1.078695e-04 1.191300e-15 0 
    0.165959 1.081131e-04 1.177600e-15 0 
    0.166725 1.068803e-04 1.153500e-15 0 
    0.167880 1.108935e-04 1.180400e-15 0 
    0.168655 1.051688e-04 1.109200e-15 0 
    0.169044 1.174564e-04 1.233100e-15 0 
    0.169824 1.180044e-04 1.227500e-15 0 
    0.171002 1.145202e-04 1.174900e-15 0 
    0.171791 1.139956e-04 1.158800e-15 0 
    0.172982 1.150530e-04 1.153500e-15 0 
    0.173780 1.169224e-04 1.161500e-15 0 
    0.174985 1.252858e-04 1.227500e-15 0 
    0.175792 1.241367e-04 1.205100e-15 0 
    0.177011 1.339377e-04 1.282400e-15 0 
    0.177828 1.241300e-04 1.177600e-15 0 
    0.179061 1.299828e-04 1.216200e-15 0 
    0.179887 1.354885e-04 1.256100e-15 0 
    0.180717 1.502733e-04 1.380400e-15 0 
    0.181970 1.502782e-04 1.361500e-15 0 
    0.182810 1.455085e-04 1.306200e-15 0 
    0.184077 1.492379e-04 1.321300e-15 0 
    0.184927 1.482141e-04 1.300200e-15 0 
    0.185780 1.284964e-04 1.116900e-15 0 
    0.187068 1.461834e-04 1.253200e-15 0 
    0.187932 1.651608e-04 1.402900e-15 0 
    0.188799 1.666882e-04 1.402900e-15 0 
    0.190108 1.647791e-04 1.367800e-15 0 
    0.190985 1.765646e-04 1.452200e-15 0 
    0.191867 1.773771e-04 1.445500e-15 0 
    0.193197 1.848836e-04 1.486000e-15 0 
    0.194089 1.690026e-04 1.345900e-15 0 
    0.194984 1.364240e-04 1.076500e-15 0 
    0.195884 2.017907e-04 1.577700e-15 0 
    0.197242 2.041185e-04 1.574000e-15 0 
    0.198153 2.359934e-04 1.803100e-15 0 
    0.199067 2.243323e-04 1.698300e-15 0 
    0.199986 2.381800e-04 1.786600e-15 0 
    0.200909 2.437204e-04 1.811400e-15 0 
    0.201837 2.338235e-04 1.721900e-15 0 
    0.203236 2.459843e-04 1.786600e-15 0 
    0.204174 2.167169e-04 1.559600e-15 0 
    0.205116 2.653938e-04 1.892400e-15 0 
    0.206063 2.936952e-04 2.075000e-15 0 
    0.207014 2.804703e-04 1.963400e-15 0 
    0.207970 2.740849e-04 1.901100e-15 0 
    0.208930 3.212914e-04 2.208100e-15 0 
    0.209411 4.476073e-04 3.062100e-15 0 
    0.209894 5.022179e-04 3.419900e-15 0 
    0.211349 4.719514e-04 3.169700e-15 0 
    0.212324 4.507096e-04 2.999300e-15 0 
    0.213304 5.068696e-04 3.342100e-15 0 
    0.214289 4.569782e-04 2.985500e-15 0 
    0.215278 4.314066e-04 2.792600e-15 0 
    0.216272 5.381456e-04 3.451600e-15 0 
    0.217270 5.406218e-04 3.435700e-15 0 
    0.218273 4.796231e-04 3.020100e-15 0 
    0.219281 4.930550e-04 3.076200e-15 0 
    0.220293 5.968906e-04 3.689900e-15 0 
    0.221309 6.207104e-04 3.802000e-15 0 
    0.222331 5.982643e-04 3.630900e-15 0 
    0.223357 4.874092e-04 2.931000e-15 0 
    0.224388 5.532119e-04 3.296200e-15 0 
    0.225424 7.159633e-04 4.226800e-15 0 
    0.226464 6.821714e-04 3.990400e-15 0 
    0.227510 5.381398e-04 3.119000e-15 0 
    0.228034 5.151071e-04 2.971800e-15 0 
    0.229087 5.647990e-04 3.228600e-15 0 
    0.230144 7.258673e-04 4.111300e-15 0 
    0.231207 6.188145e-04 3.472800e-15 0 
    0.232274 7.451741e-04 4.143600e-15 0 
    0.233346 6.621527e-04 3.648200e-15 0 
    0.234423 5.378362e-04 2.936100e-15 0 
    0.235505 4.834491e-04 2.615000e-15 0 
    0.236048 3.382122e-04 1.821000e-15 0 
    0.237137 6.322572e-04 3.373000e-15 0 
    0.238232 3.754688e-04 1.984700e-15 0 
    0.239332 5.015038e-04 2.626600e-15 0 
    0.240436 2.944236e-04 1.527900e-15 0 
    0.241546 3.763996e-04 1.935400e-15 0 
    0.242103 3.780008e-04 1.934700e-15 0 
    0.243220 4.520305e-04 2.292400e-15 0 
    0.244343 7.688815e-04 3.863500e-15 0 
    0.245471 7.665368e-04 3.816400e-15 0 
    0.246604 9.166830e-04 4.522100e-15 0 
    0.247172 9.595219e-04 4.711700e-15 0 
    0.248313 8.724386e-04 4.244800e-15 0 
    0.249460 7.610350e-04 3.668800e-15 0 
    0.250611 5.094185e-04 2.433300e-15 0 
    0.251189 5.969294e-04 2.838200e-15 0 
    0.252348 9.259426e-04 4.362200e-15 0 
    0.253513 4.229104e-04 1.974100e-15 0 
    0.254683 3.638406e-04 1.682800e-15 0 
    0.255270 5.912218e-04 2.721900e-15 0 
    0.256448 6.403594e-04 2.921100e-15 0 
    0.257632 1.074201e-03 4.855200e-15 0 
    0.258226 8.258622e-04 3.715600e-15 0 
    0.259418 1.046098e-03 4.663300e-15 0 
    0.260615 9.402190e-04 4.152900e-15 0 
    0.261216 8.492832e-04 3.734000e-15 0 
    0.262422 7.323366e-04 3.190300e-15 0 
    0.263633 6.567047e-04 2.834600e-15 0 
    0.264241 9.229709e-04 3.965600e-15 0 
    0.265461 1.516505e-03 6.456000e-15 0 
    0.266686 2.077267e-03 8.762200e-15 0 
    0.267301 2.756296e-03 1.157300e-14 0 
    0.268534 1.887805e-03 7.853800e-15 0 
    0.269774 2.150833e-03 8.866000e-15 0 
    0.270396 2.451512e-03 1.005900e-14 0 
    0.271644 1.828380e-03 7.433400e-15 0 
    0.272898 2.232064e-03 8.991400e-15 0 
    0.273527 1.646349e-03 6.601500e-15 0 
    0.274789 1.406556e-03 5.588300e-15 0 
    0.275423 1.745741e-03 6.904000e-15 0 
    0.276694 9.808557e-04 3.843500e-15 0 
    0.277332 1.353387e-03 5.278900e-15 0 
    0.278612 1.782598e-03 6.889300e-15 0 
    0.279898 1.939457e-03 7.426800e-15 0 
    0.280543 1.154777e-03 4.401700e-15 0 
    0.281838 4.614507e-04 1.742800e-15 0 
    0.282488 5.766841e-04 2.168000e-15 0 
    0.283792 1.764236e-03 6.571700e-15 0 
    0.284446 2.554826e-03 9.472900e-15 0 
    0.285759 2.420921e-03 8.894100e-15 0 
    0.286418 1.839887e-03 6.728400e-15 0 
    0.287740 1.070061e-03 3.877300e-15 0 
    0.288403 2.472942e-03 8.919400e-15 0 
    0.289734 3.182945e-03 1.137500e-14 0 
    0.291072 2.940732e-03 1.041300e-14 0 
    0.291743 3.461302e-03 1.220000e-14 0 
    0.293089 4.632935e-03 1.618000e-14 0 
    0.295121 4.142305e-03 1.426800e-14 0 
    0.297167 3.923240e-03 1.332800e-14 0 
    0.299227 4.130930e-03 1.384100e-14 0 
    0.301301 4.260413e-03 1.407900e-14 0 
    0.303389 4.363541e-03 1.422200e-14 0 
    0.305492 4.647292e-03 1.493900e-14 0 
    0.307610 4.961132e-03 1.572900e-14 0 
    0.309030 5.298633e-03 1.664500e-14 0 
    0.311172 5.254534e-03 1.628000e-14 0 
    0.313329 5.969044e-03 1.824000e-14 0 
    0.315501 5.639655e-03 1.699700e-14 0 
    0.317687 5.644064e-03 1.677700e-14 0 
    0.319154 6.254160e-03 1.842000e-14 0 
    0.321366 5.604105e-03 1.627900e-14 0 
    0.323594 6.263936e-03 1.794600e-14 0 
    0.325837 5.472343e-03 1.546300e-14 0 
    0.327341 7.442786e-03 2.083800e-14 0 
    0.329610 8.690696e-03 2.399800e-14 0 
    0.331894 8.636778e-03 2.352200e-14 0 
    0.333426 8.239394e-03 2.223400e-14 0 
    0.334966 7.681363e-03 2.053800e-14 0 
    0.335738 8.340904e-03 2.219900e-14 0 
    0.336512 7.310796e-03 1.936800e-14 0 
    0.337287 8.805220e-03 2.322000e-14 0 
    0.338065 8.063014e-03 2.116500e-14 0 
    0.338844 6.811989e-03 1.779900e-14 0 
    0.339625 7.551646e-03 1.964100e-14 0 
    0.340408 7.409601e-03 1.918300e-14 0 
    0.341193 7.718935e-03 1.989200e-14 0 
    0.341979 8.878037e-03 2.277400e-14 0 
    0.342768 1.014134e-02 2.589500e-14 0 
    0.343558 8.587229e-03 2.182600e-14 0 
    0.344350 7.809081e-03 1.975700e-14 0 
    0.345144 1.000843e-02 2.520500e-14 0 
    0.345939 1.042638e-02 2.613700e-14 0 
    0.346737 9.525550e-03 2.376900e-14 0 
    0.347536 7.649884e-03 1.900100e-14 0 
    0.348337 9.149745e-03 2.262200e-14 0 
    0.349140 7.982741e-03 1.964600e-14 0 
    0.349945 1.009042e-02 2.471900e-14 0 
    0.350752 7.918836e-03 1.931000e-14 0 
    0.351560 9.277411e-03 2.251900e-14 0 
    0.352371 8.753241e-03 2.114900e-14 0 
    0.353183 1.054204e-02 2.535400e-14 0 
    0.353997 9.946580e-03 2.381200e-14 0 
    0.354813 1.087499e-02 2.591500e-14 0 
    0.355631 7.623817e-03 1.808400e-14 0 
    0.356451 1.068891e-02 2.523800e-14 0 
    0.357273 1.116034e-02 2.623000e-14 0 
    0.358096 1.149307e-02 2.688800e-14 0 
    0.358922 1.062119e-02 2.473400e-14 0 
    0.359749 8.373863e-03 1.941100e-14 0 
    0.360579 9.239891e-03 2.132000e-14 0 
    0.361410 7.506135e-03 1.724000e-14 0 
    0.362243 1.002696e-02 2.292400e-14 0 
    0.363078 1.238546e-02 2.818600e-14 0 
    0.363915 9.719782e-03 2.201800e-14 0 
    0.364754 1.123037e-02 2.532300e-14 0 
    0.365595 1.199863e-02 2.693100e-14 0 
    0.366437 9.394403e-03 2.098900e-14 0 
    0.367282 1.314068e-02 2.922400e-14 0 
    0.368129 1.047968e-02 2.319900e-14 0 
    0.368978 1.452438e-02 3.200500e-14 0 
    0.369828 1.357789e-02 2.978200e-14 0 
    0.370681 1.385403e-02 3.024800e-14 0 
    0.371535 1.289139e-02 2.801700e-14 0 
    0.372392 1.419208e-02 3.070200e-14 0 
    0.373250 1.516264e-02 3.265100e-14 0 
    0.374111 1.092707e-02 2.342200e-14 0 
    0.374153 1.101585e-02 2.360700e-14 1 
    0.374428 1.145825e-02 2.451900e-14 1 
    0.374703 1.074312e-02 2.295500e-14 1 
    0.374978 9.333123e-03 1.991300e-14 1 
    0.375253 1.025460e-02 2.184700e-14 1 
    0.375528 1.255747e-02 2.671400e-14 1 
    0.375803 1.159199e-02 2.462400e-14 1 
    0.376078 1.181781e-02 2.506700e-14 1 
    0.376353 1.080631e-02 2.288800e-14 1 
    0.376628 9.535540e-03 2.016700e-14 1 
    0.376903 1.080666e-02 2.282200e-14 1 
    0.377178 1.165515e-02 2.457800e-14 1 
    0.377453 9.263924e-03 1.950700e-14 1 
    0.377728 9.358754e-03 1.967800e-14 1 
    0.378003 1.039164e-02 2.181800e-14 1 
    0.378278 1.060853e-02 2.224100e-14 1 
    0.378553 1.173503e-02 2.456700e-14 1 
    0.378828 1.251891e-02 2.617000e-14 1 
    0.379103 1.084744e-02 2.264300e-14 1 
    0.379378 1.071350e-02 2.233100e-14 1 
    0.379653 1.143818e-02 2.380700e-14 1 
    0.379928 1.166166e-02 2.423700e-14 1 
    0.380203 1.229001e-02 2.550600e-14 1 
    0.380478 1.321450e-02 2.738500e-14 1 
    0.380753 1.605912e-02 3.323200e-14 1 
    0.381028 1.697762e-02 3.508200e-14 1 
    0.381303 1.717515e-02 3.543900e-14 1 
    0.381578 1.243973e-02 2.563100e-14 1 
    0.381853 1.335635e-02 2.748000e-14 1 
    0.382128 1.219428e-02 2.505300e-14 1 
    0.382403 1.208023e-02 2.478300e-14 1 
    0.382678 1.095682e-02 2.244600e-14 1 
    0.382953 9.381881e-03 1.919200e-14 1 
    0.383228 1.465944e-02 2.994500e-14 1 
    0.383503 1.473540e-02 3.005700e-14 1 
    0.383778 1.406724e-02 2.865300e-14 1 
    0.384053 1.499157e-02 3.049200e-14 1 
    0.384328 1.173294e-02 2.383000e-14 1 
    0.384603 1.128478e-02 2.288700e-14 1 
    0.384878 1.121056e-02 2.270400e-14 1 
    0.385153 1.224817e-02 2.477000e-14 1 
    0.385428 1.154667e-02 2.331800e-14 1 
    0.385703 1.119917e-02 2.258400e-14 1 
    0.385978 1.097429e-02 2.209900e-14 1 
    0.386253 6.658909e-03 1.339000e-14 1 
    0.386528 6.539409e-03 1.313100e-14 1 
    0.386803 8.335139e-03 1.671300e-14 1 
    0.387078 9.563110e-03 1.914800e-14 1 
    0.387353 1.200089e-02 2.399500e-14 1 
    0.387628 1.053291e-02 2.103000e-14 1 
    0.387903 1.260677e-02 2.513500e-14 1 
    0.388178 1.379294e-02 2.746100e-14 1 
    0.388453 1.430894e-02 2.844800e-14 1 
    0.388728 1.330166e-02 2.640800e-14 1 
    0.389003 1.205190e-02 2.389300e-14 1 
    0.389278 1.245738e-02 2.466200e-14 1 
    0.389553 1.272639e-02 2.515900e-14 1 
    0.389828 1.393932e-02 2.751800e-14 1 
    0.390103 1.196645e-02 2.359000e-14 1 
    0.390378 1.188071e-02 2.338800e-14 1 
    0.390653 1.522486e-02 2.992900e-14 1 
    0.390928 1.455808e-02 2.857800e-14 1 
    0.391203 1.466376e-02 2.874500e-14 1 
    0.391478 1.361722e-02 2.665600e-14 1 
    0.391753 1.255746e-02 2.454700e-14 1 
    0.392028 1.243473e-02 2.427300e-14 1 
    0.392303 1.452165e-02 2.830700e-14 1 
    0.392578 1.576468e-02 3.068700e-14 1 
    0.392853 1.617312e-02 3.143800e-14 1 
    0.393128 1.667951e-02 3.237700e-14 1 
    0.393403 1.669150e-02 3.235500e-14 1 
    0.393678 1.829360e-02 3.541100e-14 1 
    0.393953 1.743557e-02 3.370300e-14 1 
    0.394228 1.796036e-02 3.466900e-14 1 
    0.394503 1.773589e-02 3.418800e-14 1 
    0.394778 1.757984e-02 3.384000e-14 1 
    0.395053 1.733695e-02 3.332600e-14 1 
    0.395328 1.646298e-02 3.160200e-14 1 
    0.395603 1.481498e-02 2.839900e-14 1 
    0.395878 1.210971e-02 2.318100e-14 1 
    0.396153 1.027520e-02 1.964200e-14 1 
    0.396428 6.920065e-03 1.321000e-14 1 
    0.396703 7.106453e-03 1.354700e-14 1 
    0.396978 1.049087e-02 1.997100e-14 1 
    0.397253 1.230023e-02 2.338300e-14 1 
    0.397528 1.328967e-02 2.522900e-14 1 
    0.397803 1.568652e-02 2.973800e-14 1 
    0.398078 1.668807e-02 3.159300e-14 1 
    0.398353 1.812713e-02 3.427000e-14 1 
    0.398628 1.937149e-02 3.657200e-14 1 
    0.398903 1.750360e-02 3.300000e-14 1 
    0.399178 1.415763e-02 2.665500e-14 1 
    0.399453 1.079495e-02 2.029600e-14 1 
    0.399728 9.599199e-03 1.802300e-14 1 
    0.400003 7.803317e-03 1.463100e-14 1 
    0.400278 1.009882e-02 1.890900e-14 1 
    0.400553 1.364565e-02 2.551500e-14 1 
    0.400828 1.571178e-02 2.933800e-14 1 
    0.401103 1.807152e-02 3.369800e-14 1 
    0.401378 2.054026e-02 3.824900e-14 1 
    0.401653 2.253443e-02 4.190500e-14 1 
    0.401928 2.344303e-02 4.353500e-14 1 
    0.402203 2.333115e-02 4.326800e-14 1 
    0.402478 2.241382e-02 4.151000e-14 1 
    0.402753 2.464294e-02 4.557600e-14 1 
    0.403028 2.356666e-02 4.352600e-14 1 
    0.403303 2.426950e-02 4.476300e-14 1 
    0.403578 2.560561e-02 4.716300e-14 1 
    0.403853 2.305706e-02 4.241100e-14 1 
    0.404128 2.458992e-02 4.516900e-14 1 
    0.404403 2.493304e-02 4.573700e-14 1 
    0.404678 2.493257e-02 4.567400e-14 1 
    0.404953 2.624829e-02 4.801900e-14 1 
    0.405228 2.689263e-02 4.913100e-14 1 
    0.405503 2.654382e-02 4.842800e-14 1 
    0.405778 2.654251e-02 4.836000e-14 1 
    0.406053 2.744742e-02 4.994100e-14 1 
    0.406328 2.582202e-02 4.692000e-14 1 
    0.406603 2.492345e-02 4.522600e-14 1 
    0.406878 2.623963e-02 4.755000e-14 1 
    0.407153 2.680614e-02 4.851100e-14 1 
    0.407428 2.483656e-02 4.488600e-14 1 
    0.407703 2.446950e-02 4.416300e-14 1 
    0.407978 2.423954e-02 4.368900e-14 1 
    0.408253 2.581504e-02 4.646600e-14 1 
    0.408528 2.533691e-02 4.554400e-14 1 
    0.408803 2.375943e-02 4.265100e-14 1 
    0.409078 2.443290e-02 4.380100e-14 1 
    0.409353 2.419262e-02 4.331200e-14 1 
    0.409628 2.536223e-02 4.534500e-14 1 
    0.409903 2.461948e-02 4.395800e-14 1 
    0.410178 2.569677e-02 4.582000e-14 1 
    0.410453 2.623216e-02 4.671200e-14 1 
    0.410728 2.623021e-02 4.664600e-14 1 
    0.411003 2.530867e-02 4.494700e-14 1 
    0.411278 2.489205e-02 4.414800e-14 1 
    0.411553 2.577336e-02 4.565000e-14 1 
    0.411828 2.621203e-02 4.636500e-14 1 
    0.412103 2.811347e-02 4.966200e-14 1 
    0.412378 2.705585e-02 4.773000e-14 1 
    0.412653 2.533520e-02 4.463500e-14 1 
    0.412928 2.469944e-02 4.345700e-14 1 
    0.413203 2.472495e-02 4.344400e-14 1 
    0.413478 2.333317e-02 4.094400e-14 1 
    0.413753 2.359647e-02 4.135100e-14 1 
    0.414028 2.554717e-02 4.471000e-14 1 
    0.414303 2.633522e-02 4.602800e-14 1 
    0.414578 2.671394e-02 4.662800e-14 1 
    0.414853 2.858860e-02 4.983400e-14 1 
    0.415128 2.766376e-02 4.815800e-14 1 
    0.415403 2.628486e-02 4.569700e-14 1 
    0.415678 2.665085e-02 4.627200e-14 1 
    0.415953 2.712732e-02 4.703700e-14 1 
    0.416228 2.680227e-02 4.641200e-14 1 
    0.416503 2.765997e-02 4.783400e-14 1 
    0.416778 2.610190e-02 4.508000e-14 1 
    0.417053 2.604823e-02 4.492800e-14 1 
    0.417328 2.732728e-02 4.707200e-14 1 
    0.417603 2.583156e-02 4.443700e-14 1 
    0.417878 2.608503e-02 4.481400e-14 1 
    0.418153 2.708514e-02 4.647100e-14 1 
    0.418428 2.662647e-02 4.562400e-14 1 
    0.418703 2.528995e-02 4.327700e-14 1 
    0.418978 2.677609e-02 4.576000e-14 1 
    0.419253 2.813365e-02 4.801700e-14 1 
    0.419528 2.958975e-02 5.043600e-14 1 
    0.419803 3.069888e-02 5.225800e-14 1 
    0.420078 2.793625e-02 4.749300e-14 1 
    0.420353 2.653630e-02 4.505400e-14 1 
    0.420628 2.772342e-02 4.700800e-14 1 
    0.420903 2.656090e-02 4.497800e-14 1 
    0.421178 2.663583e-02 4.504600e-14 1 
    0.421453 2.640952e-02 4.460500e-14 1 
    0.421728 2.632721e-02 4.440800e-14 1 
    0.422003 2.893194e-02 4.873800e-14 1 
    0.422278 2.801624e-02 4.713400e-14 1 
    0.422553 2.749388e-02 4.619500e-14 1 
    0.422828 2.835149e-02 4.757400e-14 1 
    0.423103 2.692880e-02 4.512800e-14 1 
    0.423378 2.629701e-02 4.401200e-14 1 
    0.423653 2.744337e-02 4.587100e-14 1 
    0.423928 2.879453e-02 4.806700e-14 1 
    0.424203 2.957688e-02 4.930900e-14 1 
    0.424478 2.792093e-02 4.648800e-14 1 
    0.424753 2.815498e-02 4.681700e-14 1 
    0.425028 2.881469e-02 4.785200e-14 1 
    0.425303 2.930660e-02 4.860600e-14 1 
    0.425578 2.867136e-02 4.749100e-14 1 
    0.425853 2.673110e-02 4.422000e-14 1 
    0.426128 2.662945e-02 4.399500e-14 1 
    0.426403 2.685292e-02 4.430700e-14 1 
    0.426678 2.863043e-02 4.717900e-14 1 
    0.426953 2.938192e-02 4.835500e-14 1 
    0.427228 2.841834e-02 4.670900e-14 1 
    0.427503 3.029958e-02 4.973700e-14 1 
    0.427778 3.005310e-02 4.926900e-14 1 
    0.428053 2.959826e-02 4.846100e-14 1 
    0.428328 2.961062e-02 4.841900e-14 1 
    0.428603 2.927084e-02 4.780200e-14 1 
    0.428878 2.894115e-02 4.720300e-14 1 
    0.429153 2.900652e-02 4.724900e-14 1 
    0.429428 2.876894e-02 4.680200e-14 1 
    0.429703 3.022017e-02 4.910000e-14 1 
    0.429978 3.071491e-02 4.984000e-14 1 
    0.430253 2.990329e-02 4.846100e-14 1 
    0.430528 2.724338e-02 4.409400e-14 1 
    0.430803 2.846598e-02 4.601400e-14 1 
    0.431078 2.940794e-02 4.747600e-14 1 
    0.431353 2.970224e-02 4.789000e-14 1 
    0.431628 2.985625e-02 4.807700e-14 1 
    0.431903 2.895228e-02 4.656200e-14 1 
    0.432178 2.934279e-02 4.713000e-14 1 
    0.432453 2.683237e-02 4.304300e-14 1 
    0.432728 2.644706e-02 4.237100e-14 1 
    0.433003 2.636132e-02 4.218000e-14 1 
    0.433278 2.370965e-02 3.788900e-14 1 
    0.433553 2.293525e-02 3.660500e-14 1 
    0.433828 2.277929e-02 3.631000e-14 1 
    0.434103 2.310843e-02 3.678800e-14 1 
    0.434378 2.488116e-02 3.956000e-14 1 
    0.434653 2.656134e-02 4.217800e-14 1 
    0.434928 3.070546e-02 4.869700e-14 1 
    0.435203 3.259287e-02 5.162500e-14 1 
    0.435478 3.285026e-02 5.196700e-14 1 
    0.435753 3.163349e-02 4.997900e-14 1 
    0.436028 3.145859e-02 4.964000e-14 1 
    0.436303 3.226734e-02 5.085200e-14 1 
    0.436578 3.356027e-02 5.282300e-14 1 
    0.436853 3.393653e-02 5.334800e-14 1 
    0.437128 3.097612e-02 4.863300e-14 1 
    0.437403 2.901516e-02 4.549700e-14 1 
    0.437678 3.063460e-02 4.797600e-14 1 
    0.437953 3.252017e-02 5.086500e-14 1 
    0.438228 3.457876e-02 5.401700e-14 1 
    0.438503 3.484714e-02 5.436800e-14 1 
    0.438778 3.268837e-02 5.093600e-14 1 
    0.439053 3.326717e-02 5.177300e-14 1 
    0.439328 3.482398e-02 5.412800e-14 1 
    0.439603 3.658559e-02 5.679500e-14 1 
    0.439878 3.707319e-02 5.748000e-14 1 
    0.440153 3.671271e-02 5.685000e-14 1 
    0.440428 3.620771e-02 5.599800e-14 1 
    0.440703 3.433665e-02 5.303800e-14 1 
    0.440978 3.530061e-02 5.445900e-14 1 
    0.441253 3.446978e-02 5.311100e-14 1 
    0.441528 3.312474e-02 5.097500e-14 1 
    0.441803 3.022971e-02 4.646200e-14 1 
    0.442078 3.152008e-02 4.838500e-14 1 
    0.442353 3.189261e-02 4.889600e-14 1 
    0.442628 3.401359e-02 5.208300e-14 1 
    0.442903 3.442334e-02 5.264500e-14 1 
    0.443178 3.471751e-02 5.302900e-14 1 
    0.443453 3.594772e-02 5.484000e-14 1 
    0.443728 3.518505e-02 5.361000e-14 1 
    0.444003 3.334797e-02 5.074800e-14 1 
    0.444278 3.246159e-02 4.933800e-14 1 
    0.444553 3.507754e-02 5.324800e-14 1 
    0.444828 3.847685e-02 5.833600e-14 1 
    0.445103 3.779141e-02 5.722600e-14 1 
    0.445378 3.502470e-02 5.297100e-14 1 
    0.445653 3.615103e-02 5.460700e-14 1 
    0.445928 3.931100e-02 5.930700e-14 1 
    0.446203 3.915178e-02 5.899400e-14 1 
    0.446478 3.888842e-02 5.852500e-14 1 
    0.446753 3.841341e-02 5.773900e-14 1 
    0.447028 3.840077e-02 5.764900e-14 1 
    0.447303 3.873081e-02 5.807300e-14 1 
    0.447578 3.942683e-02 5.904400e-14 1 
    0.447853 4.050959e-02 6.059100e-14 1 
    0.448128 4.163976e-02 6.220500e-14 1 
    0.448403 4.086919e-02 6.097900e-14 1 
    0.448678 4.033553e-02 6.010900e-14 1 
    0.448953 3.956935e-02 5.889500e-14 1 
    0.449228 3.661430e-02 5.443000e-14 1 
    0.449503 3.749025e-02 5.566400e-14 1 
    0.449778 3.870678e-02 5.740000e-14 1 
    0.450053 3.951570e-02 5.852800e-14 1 
    0.450328 3.946329e-02 5.837900e-14 1 
    0.450603 4.075074e-02 6.021000e-14 1 
    0.450878 4.248849e-02 6.270100e-14 1 
    0.451153 4.364419e-02 6.432800e-14 1 
    0.451428 4.186197e-02 6.162600e-14 1 
    0.451703 4.273525e-02 6.283500e-14 1 
    0.451978 4.293711e-02 6.305500e-14 1 
    0.452253 4.306982e-02 6.317300e-14 1 
    0.452528 4.329970e-02 6.343300e-14 1 
    0.452803 4.260193e-02 6.233500e-14 1 
    0.453078 4.332701e-02 6.331900e-14 1 
    0.453353 4.238280e-02 6.186400e-14 1 
    0.453628 4.491181e-02 6.547600e-14 1 
    0.453903 4.599917e-02 6.698000e-14 1 
    0.454178 4.658987e-02 6.775800e-14 1 
    0.454453 4.803624e-02 6.977700e-14 1 
    0.454728 4.759536e-02 6.905300e-14 1 
    0.455003 4.536046e-02 6.573100e-14 1 
    0.455278 4.439274e-02 6.425100e-14 1 
    0.455553 4.491678e-02 6.493100e-14 1 
    0.455828 4.324992e-02 6.244600e-14 1 
    0.456103 4.448512e-02 6.415200e-14 1 
    0.456378 4.175684e-02 6.014500e-14 1 
    0.456653 4.031965e-02 5.800500e-14 1 
    0.456928 4.114072e-02 5.911500e-14 1 
    0.457203 4.282143e-02 6.145600e-14 1 
    0.457478 4.426261e-02 6.344800e-14 1 
    0.457753 4.504434e-02 6.449100e-14 1 
    0.458028 4.511386e-02 6.451300e-14 1 
    0.458303 4.483549e-02 6.403800e-14 1 
    0.458578 4.444839e-02 6.340900e-14 1 
    0.458853 4.496983e-02 6.407600e-14 1 
    0.459128 4.589645e-02 6.531800e-14 1 
    0.459403 4.670279e-02 6.638600e-14 1 
    0.459678 4.765747e-02 6.766200e-14 1 
    0.459953 4.870107e-02 6.906100e-14 1 
    0.460228 4.790361e-02 6.784900e-14 1 
    0.460503 4.729712e-02 6.691000e-14 1 
    0.460778 4.756028e-02 6.720200e-14 1 
    0.461053 4.759651e-02 6.717300e-14 1 
    0.461328 4.653457e-02 6.559600e-14 1 
    0.461603 4.544442e-02 6.398300e-14 1 
    0.461878 4.627511e-02 6.507500e-14 1 
    0.462153 4.724794e-02 6.636400e-14 1 
    0.462428 4.676246e-02 6.560400e-14 1 
    0.462703 4.663397e-02 6.534600e-14 1 
    0.462978 4.664440e-02 6.528300e-14 1 
    0.463253 4.698096e-02 6.567600e-14 1 
    0.463528 4.734042e-02 6.610000e-14 1 
    0.463803 4.761387e-02 6.640300e-14 1 
    0.464078 4.834732e-02 6.734600e-14 1 
    0.464353 5.065432e-02 7.047600e-14 1 
    0.464628 5.142673e-02 7.146600e-14 1 
    0.464903 5.067280e-02 7.033500e-14 1 
    0.465178 5.058995e-02 7.013700e-14 1 
    0.465453 5.091842e-02 7.050900e-14 1 
    0.465728 5.191779e-02 7.180800e-14 1 
    0.466003 5.040038e-02 6.962700e-14 1 
    0.466278 4.954674e-02 6.836700e-14 1 
    0.466553 5.003402e-02 6.895800e-14 1 
    0.466828 5.105626e-02 7.028400e-14 1 
    0.467103 4.943785e-02 6.797600e-14 1 
    0.467378 5.012010e-02 6.883300e-14 1 
    0.467653 4.969431e-02 6.816800e-14 1 
    0.467928 4.797485e-02 6.573200e-14 1 
    0.468203 4.676200e-02 6.399500e-14 1 
    0.468478 4.659675e-02 6.369400e-14 1 
    0.468753 4.851624e-02 6.624000e-14 1 
    0.469028 4.897796e-02 6.679200e-14 1 
    0.469303 4.994135e-02 6.802600e-14 1 
    0.469578 4.904953e-02 6.673300e-14 1 
    0.469853 4.857275e-02 6.600700e-14 1 
    0.470128 4.697345e-02 6.375900e-14 1 
    0.470403 4.654677e-02 6.310600e-14 1 
    0.470678 4.626521e-02 6.265100e-14 1 
    0.470953 4.838125e-02 6.544000e-14 1 
    0.471228 4.943999e-02 6.679400e-14 1 
    0.471503 4.804377e-02 6.483200e-14 1 
    0.471778 4.862881e-02 6.554500e-14 1 
    0.472053 4.829482e-02 6.501900e-14 1 
    0.472328 4.912821e-02 6.606400e-14 1 
    0.472603 4.877223e-02 6.550900e-14 1 
    0.472878 4.978980e-02 6.679800e-14 1 
    0.473153 5.089173e-02 6.819700e-14 1 
    0.473428 4.905174e-02 6.565500e-14 1 
    0.473703 4.884620e-02 6.530400e-14 1 
    0.473978 4.928185e-02 6.581000e-14 1 
    0.474253 4.979938e-02 6.642400e-14 1 
    0.474528 4.859240e-02 6.473900e-14 1 
    0.474803 4.927170e-02 6.556800e-14 1 
    0.475078 4.897520e-02 6.509800e-14 1 
    0.475353 4.968418e-02 6.596400e-14 1 
    0.475628 5.180483e-02 6.870000e-14 1 
    0.475903 5.364190e-02 7.105400e-14 1 
    0.476178 5.326024e-02 7.046700e-14 1 
    0.476453 5.231841e-02 6.914100e-14 1 
    0.476728 5.093717e-02 6.723800e-14 1 
    0.477003 5.077524e-02 6.694700e-14 1 
    0.477278 5.156882e-02 6.791500e-14 1 
    0.477553 5.109613e-02 6.721500e-14 1 
    0.477828 5.280727e-02 6.938600e-14 1 
    0.478103 5.343877e-02 7.013500e-14 1 
    0.478378 5.333092e-02 6.991300e-14 1 
    0.478653 5.353506e-02 7.010000e-14 1 
    0.478928 5.336875e-02 6.980200e-14 1 
    0.479203 5.345915e-02 6.984000e-14 1 
    0.479478 5.240015e-02 6.837800e-14 1 
    0.479753 5.196925e-02 6.773800e-14 1 
    0.480028 5.049805e-02 6.574500e-14 1 
    0.480303 4.899799e-02 6.371900e-14 1 
    0.480578 5.029126e-02 6.532600e-14 1 
    0.480853 5.205524e-02 6.754000e-14 1 
    0.481128 5.283162e-02 6.846900e-14 1 
    0.481403 5.228177e-02 6.767900e-14 1 
    0.481678 5.255264e-02 6.795200e-14 1 
    0.481953 5.277836e-02 6.816600e-14 1 
    0.482228 5.195882e-02 6.703100e-14 1 
    0.482503 5.126612e-02 6.606200e-14 1 
    0.482778 5.246664e-02 6.753200e-14 1 
    0.483053 5.285622e-02 6.795600e-14 1 
    0.483328 5.239314e-02 6.728400e-14 1 
    0.483603 5.392773e-02 6.917600e-14 1 
    0.483878 5.346851e-02 6.850900e-14 1 
    0.484153 5.325115e-02 6.815300e-14 1 
    0.484428 5.277896e-02 6.747200e-14 1 
    0.484703 5.357503e-02 6.841200e-14 1 
    0.484978 5.465427e-02 6.971100e-14 1 
    0.485253 5.519584e-02 7.032200e-14 1 
    0.485528 5.583362e-02 7.105400e-14 1 
    0.485803 5.617852e-02 7.141200e-14 1 
    0.486078 5.535061e-02 7.028000e-14 1 
    0.486353 5.411623e-02 6.863500e-14 1 
    0.486628 5.386013e-02 6.823300e-14 1 
    0.486903 5.241480e-02 6.632700e-14 1 
    0.487178 5.400093e-02 6.825700e-14 1 
    0.487453 5.418389e-02 6.841100e-14 1 
    0.487728 5.320313e-02 6.709700e-14 1 
    0.488003 5.353542e-02 6.744000e-14 1 
    0.488278 5.311736e-02 6.683800e-14 1 
    0.488553 5.268791e-02 6.622300e-14 1 
    0.488828 5.319169e-02 6.678100e-14 1 
    0.489103 5.154989e-02 6.464700e-14 1 
    0.489378 5.121750e-02 6.415800e-14 1 
    0.489653 4.918358e-02 6.154100e-14 1 
    0.489928 4.707297e-02 5.883400e-14 1 
    0.490203 4.619267e-02 5.766900e-14 1 
    0.490478 4.785712e-02 5.968000e-14 1 
    0.490753 4.953164e-02 6.169900e-14 1 
    0.491028 4.904950e-02 6.103000e-14 1 
    0.491303 4.999515e-02 6.213700e-14 1 
    0.491578 5.262066e-02 6.532700e-14 1 
    0.491853 5.275132e-02 6.541600e-14 1 
    0.492128 5.224441e-02 6.471500e-14 1 
    0.492403 5.327589e-02 6.591900e-14 1 
    0.492678 5.287908e-02 6.535500e-14 1 
    0.492953 5.287251e-02 6.527400e-14 1 
    0.493228 5.515180e-02 6.801200e-14 1 
    0.493503 5.610632e-02 6.911200e-14 1 
    0.493778 5.709212e-02 7.024800e-14 1 
    0.494053 5.619808e-02 6.907100e-14 1 
    0.494328 5.540866e-02 6.802500e-14 1 
    0.494603 5.529338e-02 6.780800e-14 1 
    0.494878 5.517774e-02 6.759100e-14 1 
    0.495153 5.559948e-02 6.803200e-14 1 
    0.495428 5.314459e-02 6.495600e-14 1 
    0.495703 5.208803e-02 6.359400e-14 1 
    0.495978 5.160219e-02 6.293100e-14 1 
    0.496253 5.137212e-02 6.258100e-14 1 
    0.496528 5.301926e-02 6.451600e-14 1 
    0.496803 5.663129e-02 6.883500e-14 1 
    0.497078 5.656717e-02 6.868100e-14 1 
    0.497353 5.659184e-02 6.863500e-14 1 
    0.497628 5.515461e-02 6.681800e-14 1 
    0.497903 5.523872e-02 6.684600e-14 1 
    0.498178 5.660602e-02 6.842500e-14 1 
    0.498453 5.913155e-02 7.139900e-14 1 
    0.498728 5.976143e-02 7.208000e-14 1 
    0.499003 5.902888e-02 7.111800e-14 1 
    0.499278 5.773706e-02 6.948500e-14 1 
    0.499553 5.624763e-02 6.761800e-14 1 
    0.499828 5.635953e-02 6.767800e-14 1 
    0.500103 5.695512e-02 6.831800e-14 1 
    0.500378 5.729569e-02 6.865100e-14 1 
    0.500653 5.647890e-02 6.759800e-14 1 
    0.500928 5.762580e-02 6.889500e-14 1 
    0.501203 5.721097e-02 6.832400e-14 1 
    0.501478 5.761913e-02 6.873600e-14 1 
    0.501753 5.558438e-02 6.623600e-14 1 
    0.502028 5.360218e-02 6.380400e-14 1 
    0.502303 5.483584e-02 6.520100e-14 1 
    0.502578 5.463742e-02 6.489400e-14 1 
    0.502853 5.494672e-02 6.519000e-14 1 
    0.503128 5.658641e-02 6.706200e-14 1 
    0.503403 5.591930e-02 6.619900e-14 1 
    0.503678 5.563539e-02 6.579100e-14 1 
    0.503953 5.417828e-02 6.399800e-14 1 
    0.504228 5.451370e-02 6.432400e-14 1 
    0.504503 5.555734e-02 6.548400e-14 1 
    0.504778 5.562896e-02 6.549700e-14 1 
    0.505053 5.444481e-02 6.403300e-14 1 
    0.505328 5.232252e-02 6.147000e-14 1 
    0.505603 5.203523e-02 6.106600e-14 1 
    0.505878 5.219933e-02 6.119200e-14 1 
    0.506153 5.263185e-02 6.163200e-14 1 
    0.506428 5.409108e-02 6.327200e-14 1 
    0.506703 5.498770e-02 6.425100e-14 1 
    0.506978 5.515964e-02 6.438200e-14 1 
    0.507253 5.696317e-02 6.641500e-14 1 
    0.507528 5.607188e-02 6.530500e-14 1 
    0.507803 5.373625e-02 6.251700e-14 1 
    0.508078 5.399754e-02 6.275300e-14 1 
    0.508353 5.416196e-02 6.287600e-14 1 
    0.508628 5.501566e-02 6.379800e-14 1 
    0.508903 5.638561e-02 6.531600e-14 1 
    0.509178 5.662028e-02 6.551700e-14 1 
    0.509453 5.657850e-02 6.539800e-14 1 
    0.509728 5.850513e-02 6.755200e-14 1 
    0.510003 5.919685e-02 6.827700e-14 1 
    0.510278 5.881371e-02 6.776200e-14 1 
    0.510553 5.794916e-02 6.669400e-14 1 
    0.510828 5.690433e-02 6.542100e-14 1 
    0.511103 5.593725e-02 6.424000e-14 1 
    0.511378 5.734073e-02 6.578100e-14 1 
    0.511653 5.597917e-02 6.415000e-14 1 
    0.511928 5.449489e-02 6.238200e-14 1 
    0.512203 5.482543e-02 6.269300e-14 1 
    0.512478 5.477838e-02 6.257200e-14 1 
    0.512753 5.563382e-02 6.348100e-14 1 
    0.513028 5.704547e-02 6.502200e-14 1 
    0.513303 5.793397e-02 6.596400e-14 1 
    0.513578 5.838116e-02 6.640200e-14 1 
    0.513853 5.752042e-02 6.535300e-14 1 
    0.514128 5.682338e-02 6.449200e-14 1 
    0.514403 5.719466e-02 6.484400e-14 1 
    0.514678 5.719049e-02 6.477000e-14 1 
    0.514953 5.716411e-02 6.467100e-14 1 
    0.515228 5.667568e-02 6.405000e-14 1 
    0.515503 5.829700e-02 6.581200e-14 1 
    0.515778 5.877865e-02 6.628500e-14 1 
    0.516053 5.805572e-02 6.540000e-14 1 
    0.516328 5.753200e-02 6.474100e-14 1 
    0.516603 5.541023e-02 6.228700e-14 1 
    0.516878 5.334352e-02 5.990000e-14 1 
    0.517153 5.491672e-02 6.160100e-14 1 
    0.517428 5.759712e-02 6.453900e-14 1 
    0.517703 5.683555e-02 6.361800e-14 1 
    0.517978 5.627349e-02 6.292200e-14 1 
    0.518253 5.549348e-02 6.198400e-14 1 
    0.518528 5.422237e-02 6.050000e-14 1 
    0.518803 5.506404e-02 6.137400e-14 1 
    0.519078 5.545115e-02 6.174000e-14 1 
    0.519353 5.693049e-02 6.332000e-14 1 
    0.519628 5.685398e-02 6.316800e-14 1 
    0.519903 5.829631e-02 6.470200e-14 1 
    0.520178 5.694645e-02 6.313700e-14 1 
    0.520453 5.303480e-02 5.873800e-14 1 
    0.520728 4.984148e-02 5.514300e-14 1 
    0.521003 4.545784e-02 5.024000e-14 1 
    0.521278 4.446602e-02 4.909200e-14 1 
    0.521553 4.656033e-02 5.135000e-14 1 
    0.521828 4.897940e-02 5.396100e-14 1 
    0.522103 4.961893e-02 5.460800e-14 1 
    0.522378 4.969122e-02 5.463000e-14 1 
    0.522653 5.219386e-02 5.732100e-14 1 
    0.522928 5.291420e-02 5.805100e-14 1 
    0.523203 5.324269e-02 5.835000e-14 1 
    0.523478 5.604354e-02 6.135500e-14 1 
    0.523753 5.763313e-02 6.302900e-14 1 
    0.524028 5.832251e-02 6.371600e-14 1 
    0.524303 5.898209e-02 6.436900e-14 1 
    0.524578 5.700396e-02 6.214500e-14 1 
    0.524853 5.649260e-02 6.152300e-14 1 
    0.525128 5.624572e-02 6.119000e-14 1 
    0.525403 5.812749e-02 6.317100e-14 1 
    0.525678 6.101344e-02 6.623800e-14 1 
    0.525953 6.155401e-02 6.675500e-14 1 
    0.526228 6.105811e-02 6.614800e-14 1 
    0.526503 5.962965e-02 6.453300e-14 1 
    0.526778 5.934231e-02 6.415500e-14 1 
    0.527053 5.960615e-02 6.437300e-14 1 
    0.527328 5.992327e-02 6.464800e-14 1 
    0.527603 6.097861e-02 6.571800e-14 1 
    0.527878 6.488671e-02 6.985700e-14 1 
    0.528153 6.466702e-02 6.954800e-14 1 
    0.528428 6.429970e-02 6.908100e-14 1 
    0.528703 6.352713e-02 6.818000e-14 1 
    0.528978 6.225571e-02 6.674600e-14 1 
    0.529253 6.431389e-02 6.888100e-14 1 
    0.529528 6.383210e-02 6.829400e-14 1 
    0.529803 6.264841e-02 6.695800e-14 1 
    0.530078 6.332600e-02 6.761200e-14 1 
    0.530353 6.074587e-02 6.479000e-14 1 
    0.530628 5.696175e-02 6.069100e-14 1 
    0.530903 5.474528e-02 5.826900e-14 1 
    0.531178 5.545753e-02 5.896600e-14 1 
    0.531453 5.825278e-02 6.187400e-14 1 
    0.531728 6.066543e-02 6.437000e-14 1 
    0.532003 6.289713e-02 6.666900e-14 1 
    0.532278 6.481603e-02 6.863200e-14 1 
    0.532553 6.609971e-02 6.991900e-14 1 
    0.532828 6.717397e-02 7.098200e-14 1 
    0.533103 6.713154e-02 7.086400e-14 1 
    0.533378 6.763514e-02 7.132200e-14 1 
    0.533653 6.795647e-02 7.158700e-14 1 
    0.533928 6.647759e-02 6.995700e-14 1 
    0.534203 6.572041e-02 6.908900e-14 1 
    0.534478 6.722213e-02 7.059500e-14 1 
    0.534753 7.026913e-02 7.371900e-14 1 
    0.535028 7.064772e-02 7.404000e-14 1 
    0.535303 7.079104e-02 7.411400e-14 1 
    0.535578 6.936552e-02 7.254700e-14 1 
    0.535853 7.067434e-02 7.384000e-14 1 
    0.536128 6.895331e-02 7.196800e-14 1 
    0.536403 6.631271e-02 6.914100e-14 1 
    0.536678 6.510478e-02 6.781200e-14 1 
    0.536953 6.378374e-02 6.636800e-14 1 
    0.537228 6.447826e-02 6.702200e-14 1 
    0.537503 6.667067e-02 6.923000e-14 1 
    0.537778 6.810685e-02 7.064900e-14 1 
    0.538053 6.937313e-02 7.188900e-14 1 
    0.538328 6.917068e-02 7.160600e-14 1 
    0.538603 6.820863e-02 7.053800e-14 1 
    0.538878 6.753298e-02 6.976800e-14 1 
    0.539153 6.910574e-02 7.132000e-14 1 
    0.539428 7.092699e-02 7.312500e-14 1 
    0.539703 7.242272e-02 7.459100e-14 1 
    0.539978 7.334405e-02 7.546300e-14 1 
    0.540253 7.224739e-02 7.425900e-14 1 
    0.540528 7.040627e-02 7.229300e-14 1 
    0.540803 6.809237e-02 6.984600e-14 1 
    0.541078 6.698277e-02 6.863800e-14 1 
    0.541353 6.801993e-02 6.963000e-14 1 
    0.541628 6.846456e-02 7.001400e-14 1 
    0.541903 7.133854e-02 7.287900e-14 1 
    0.542178 7.209980e-02 7.358200e-14 1 
    0.542453 7.197974e-02 7.338500e-14 1 
    0.542728 7.106598e-02 7.238000e-14 1 
    0.543003 7.075962e-02 7.199500e-14 1 
    0.543278 6.855570e-02 6.968200e-14 1 
    0.543553 6.801847e-02 6.906600e-14 1 
    0.543828 6.703838e-02 6.800200e-14 1 
    0.544103 6.573747e-02 6.661500e-14 1 
    0.544378 6.633637e-02 6.715400e-14 1 
    0.544653 6.482822e-02 6.556100e-14 1 
    0.544928 6.395140e-02 6.460900e-14 1 
    0.545203 6.676746e-02 6.738600e-14 1 
    0.545478 6.930844e-02 6.988000e-14 1 
    0.545753 6.975859e-02 7.026300e-14 1 
    0.546028 7.160287e-02 7.204800e-14 1 
    0.546303 7.033002e-02 7.069600e-14 1 
    0.546578 6.892204e-02 6.921100e-14 1 
    0.546853 7.004905e-02 7.027200e-14 1 
    0.547128 6.988502e-02 7.003700e-14 1 
    0.547403 6.882761e-02 6.890800e-14 1 
    0.547678 6.892778e-02 6.893900e-14 1 
    0.547953 6.952146e-02 6.946300e-14 1 
    0.548228 7.159895e-02 7.146700e-14 1 
    0.548503 7.087053e-02 7.066900e-14 1 
    0.548778 7.015559e-02 6.988600e-14 1 
    0.549053 7.000586e-02 6.966700e-14 1 
    0.549328 6.899972e-02 6.859700e-14 1 
    0.549603 6.796931e-02 6.750500e-14 1 
    0.549878 6.846469e-02 6.792900e-14 1 
    0.550153 6.937259e-02 6.876100e-14 1 
    0.550428 7.021756e-02 6.952900e-14 1 
    0.550703 7.040804e-02 6.964800e-14 1 
    0.550978 6.977104e-02 6.894900e-14 1 
    0.551253 6.891995e-02 6.804000e-14 1 
    0.551528 6.754487e-02 6.661600e-14 1 
    0.551803 6.749350e-02 6.649900e-14 1 
    0.552078 6.715237e-02 6.609700e-14 1 
    0.552353 6.889018e-02 6.774000e-14 1 
    0.552628 6.941791e-02 6.819100e-14 1 
    0.552903 6.977234e-02 6.847100e-14 1 
    0.553178 7.080262e-02 6.941300e-14 1 
    0.553453 7.142235e-02 6.995100e-14 1 
    0.553728 7.140341e-02 6.986300e-14 1 
    0.554003 7.025587e-02 6.867200e-14 1 
    0.554278 7.023860e-02 6.858700e-14 1 
    0.554553 7.014942e-02 6.843200e-14 1 
    0.554828 6.961052e-02 6.783900e-14 1 
    0.555103 6.932826e-02 6.749700e-14 1 
    0.555378 6.907619e-02 6.718500e-14 1 
    0.555653 6.789830e-02 6.597400e-14 1 
    0.555928 7.008873e-02 6.803500e-14 1 
    0.556203 7.216585e-02 6.998200e-14 1 
    0.556478 7.041948e-02 6.822100e-14 1 
    0.556753 7.044983e-02 6.818300e-14 1 
    0.557028 7.094762e-02 6.859700e-14 1 
    0.557303 7.032095e-02 6.792400e-14 1 
    0.557578 7.135725e-02 6.885700e-14 1 
    0.557853 7.131250e-02 6.874600e-14 1 
    0.558128 7.320826e-02 7.050400e-14 1 
    0.558403 7.220570e-02 6.947000e-14 1 
    0.558678 7.360335e-02 7.074500e-14 1 
    0.558953 7.389037e-02 7.095100e-14 1 
    0.559228 7.253598e-02 6.958200e-14 1 
    0.559503 7.568976e-02 7.253600e-14 1 
    0.559778 7.469357e-02 7.151100e-14 1 
    0.560053 7.475443e-02 7.149900e-14 1 
    0.560328 7.288022e-02 6.963800e-14 1 
    0.560603 7.303139e-02 6.971400e-14 1 
    0.560878 7.291535e-02 6.953500e-14 1 
    0.561153 7.135677e-02 6.798200e-14 1 
    0.561428 7.374136e-02 7.018500e-14 1 
    0.561703 7.345604e-02 6.984500e-14 1 
    0.561978 7.257421e-02 6.893900e-14 1 
    0.562253 7.321534e-02 6.948000e-14 1 
    0.562528 7.298214e-02 6.919100e-14 1 
    0.562803 7.284763e-02 6.899600e-14 1 
    0.563078 6.898733e-02 6.527600e-14 1 
    0.563353 6.959955e-02 6.579100e-14 1 
    0.563628 6.917405e-02 6.532500e-14 1 
    0.563903 7.008212e-02 6.611800e-14 1 
    0.564178 7.108734e-02 6.700100e-14 1 
    0.564453 7.026775e-02 6.616400e-14 1 
    0.564728 7.173522e-02 6.748000e-14 1 
    0.565003 7.347679e-02 6.905100e-14 1 
    0.565278 7.454956e-02 6.999100e-14 1 
    0.565553 7.535350e-02 7.067700e-14 1 
    0.565828 7.637981e-02 7.157000e-14 1 
    0.566103 7.275689e-02 6.810900e-14 1 
    0.566378 7.175511e-02 6.710600e-14 1 
    0.566653 7.450702e-02 6.961200e-14 1 
    0.566928 7.371156e-02 6.880200e-14 1 
    0.567203 7.426781e-02 6.925400e-14 1 
    0.567478 7.470374e-02 6.959300e-14 1 
    0.567753 7.375863e-02 6.864600e-14 1 
    0.568028 7.256529e-02 6.747000e-14 1 
    0.568303 7.374442e-02 6.850000e-14 1 
    0.568578 7.415741e-02 6.881700e-14 1 
    0.568853 7.281074e-02 6.750200e-14 1 
    0.569128 7.372332e-02 6.828200e-14 1 
    0.569403 7.411231e-02 6.857600e-14 1 
    0.569678 7.512614e-02 6.944700e-14 1 
    0.569953 7.505360e-02 6.931300e-14 1 
    0.570228 7.289327e-02 6.725300e-14 1 
    0.570503 7.106066e-02 6.549900e-14 1 
    0.570778 7.297423e-02 6.719800e-14 1 
    0.571053 7.321196e-02 6.735200e-14 1 
    0.571328 7.452614e-02 6.849500e-14 1 
    0.571603 7.468829e-02 6.857800e-14 1 
    0.571878 7.593971e-02 6.966000e-14 1 
    0.572153 7.489429e-02 6.863500e-14 1 
    0.572428 7.546655e-02 6.909300e-14 1 
    0.572703 7.698988e-02 7.042000e-14 1 
    0.572978 7.608549e-02 6.952600e-14 1 
    0.573253 7.630752e-02 6.966200e-14 1 
    0.573528 7.572287e-02 6.906200e-14 1 
    0.573803 7.528079e-02 6.859300e-14 1 
    0.574078 7.754237e-02 7.058600e-14 1 
    0.574353 7.656656e-02 6.963100e-14 1 
    0.574628 7.350742e-02 6.678500e-14 1 
    0.574903 7.494061e-02 6.802200e-14 1 
    0.575178 7.419408e-02 6.728000e-14 1 
    0.575453 7.396701e-02 6.701000e-14 1 
    0.575728 7.567073e-02 6.848800e-14 1 
    0.576003 7.512370e-02 6.792800e-14 1 
    0.576278 7.696221e-02 6.952400e-14 1 
    0.576553 7.948557e-02 7.173500e-14 1 
    0.576828 8.034776e-02 7.244400e-14 1 
    0.577103 7.765454e-02 6.994900e-14 1 
    0.577378 7.885757e-02 7.096500e-14 1 
    0.577653 8.000050e-02 7.192500e-14 1 
    0.577928 7.913814e-02 7.108200e-14 1 
    0.578203 7.972497e-02 7.154100e-14 1 
    0.578478 7.966586e-02 7.142000e-14 1 
    0.578753 8.043052e-02 7.203700e-14 1 
    0.579028 8.013482e-02 7.170400e-14 1 
    0.579303 8.145040e-02 7.281200e-14 1 
    0.579578 7.941487e-02 7.092500e-14 1 
    0.579853 7.875840e-02 7.027200e-14 1 
    0.580128 7.883312e-02 7.027200e-14 1 
    0.580403 7.970962e-02 7.098600e-14 1 
    0.580678 7.878597e-02 7.009700e-14 1 
    0.580953 7.973700e-02 7.087600e-14 1 
    0.581228 8.250161e-02 7.326400e-14 1 
    0.581503 8.043247e-02 7.135900e-14 1 
    0.581778 7.848003e-02 6.956100e-14 1 
    0.582053 7.767904e-02 6.878600e-14 1 
    0.582328 7.864317e-02 6.957400e-14 1 
    0.582603 7.800014e-02 6.894000e-14 1 
    0.582878 7.658798e-02 6.762800e-14 1 
    0.583153 7.770540e-02 6.855000e-14 1 
    0.583428 7.825752e-02 6.897200e-14 1 
    0.583703 7.983498e-02 7.029600e-14 1 
    0.583978 7.944982e-02 6.989100e-14 1 
    0.584253 8.189365e-02 7.197300e-14 1 
    0.584528 8.125666e-02 7.134600e-14 1 
    0.584803 7.976110e-02 6.996700e-14 1 
    0.585078 8.229852e-02 7.212500e-14 1 
    0.585353 8.287845e-02 7.256500e-14 1 
    0.585628 8.216525e-02 7.187300e-14 1 
    0.585903 8.186825e-02 7.154600e-14 1 
    0.586178 8.423467e-02 7.354500e-14 1 
    0.586453 8.500502e-02 7.414800e-14 1 
    0.586728 8.319253e-02 7.249900e-14 1 
    0.587003 8.549648e-02 7.443700e-14 1 
    0.587278 8.420967e-02 7.324800e-14 1 
    0.587553 8.561879e-02 7.440400e-14 1 
    0.587828 8.653056e-02 7.512600e-14 1 
    0.588103 8.465510e-02 7.342900e-14 1 
    0.588378 8.423578e-02 7.299700e-14 1 
    0.588653 8.621573e-02 7.464300e-14 1 
    0.588928 8.459796e-02 7.317400e-14 1 
    0.589203 8.440389e-02 7.293800e-14 1 
    0.589478 8.234219e-02 7.109000e-14 1 
    0.589753 8.260570e-02 7.125100e-14 1 
    0.590028 8.202130e-02 7.068100e-14 1 
    0.590303 8.003258e-02 6.890300e-14 1 
    0.590578 8.078613e-02 6.948700e-14 1 
    0.590853 7.811391e-02 6.712600e-14 1 
    0.591128 7.597473e-02 6.522700e-14 1 
    0.591403 7.954068e-02 6.822500e-14 1 
    0.591678 7.907321e-02 6.776100e-14 1 
    0.591953 7.792614e-02 6.671600e-14 1 
    0.592228 8.030639e-02 6.869000e-14 1 
    0.592503 7.868537e-02 6.724100e-14 1 
    0.592778 7.421149e-02 6.335900e-14 1 
    0.593053 7.173749e-02 6.119000e-14 1 
    0.593328 7.178174e-02 6.117100e-14 1 
    0.593603 6.752243e-02 5.748800e-14 1 
    0.593878 6.403223e-02 5.446600e-14 1 
    0.594153 6.400212e-02 5.439000e-14 1 
    0.594428 6.759129e-02 5.738700e-14 1 
    0.594703 7.236004e-02 6.137900e-14 1 
    0.594978 7.311138e-02 6.195900e-14 1 
    0.595253 7.367503e-02 6.237900e-14 1 
    0.595528 7.708158e-02 6.520300e-14 1 
    0.595803 7.819762e-02 6.608600e-14 1 
    0.596078 7.661290e-02 6.468700e-14 1 
    0.596353 7.668243e-02 6.468600e-14 1 
    0.596628 7.782581e-02 6.559000e-14 1 
    0.596903 7.929542e-02 6.676700e-14 1 
    0.597178 8.045501e-02 6.768100e-14 1 
    0.597453 7.980809e-02 6.707500e-14 1 
    0.597728 7.871923e-02 6.609900e-14 1 
    0.598003 7.998250e-02 6.709800e-14 1 
    0.598278 8.050232e-02 6.747200e-14 1 
    0.598553 8.101343e-02 6.783800e-14 1 
    0.598828 8.119665e-02 6.792900e-14 1 
    0.599103 8.171751e-02 6.830200e-14 1 
    0.599378 8.215899e-02 6.860800e-14 1 
    0.599653 8.222601e-02 6.860100e-14 1 
    0.599928 8.194512e-02 6.830400e-14 1 
    0.600203 8.125175e-02 6.766400e-14 1 
    0.600478 8.054858e-02 6.701700e-14 1 
    0.600753 7.969606e-02 6.624700e-14 1 
    0.601028 8.114413e-02 6.738900e-14 1 
    0.601303 8.381927e-02 6.954700e-14 1 
    0.601578 8.420356e-02 6.980200e-14 1 
    0.601853 8.374688e-02 6.936000e-14 1 
    0.602128 8.320709e-02 6.885000e-14 1 
    0.602403 8.225250e-02 6.799800e-14 1 
    0.602678 8.225618e-02 6.793900e-14 1 
    0.602953 8.109276e-02 6.691700e-14 1 
    0.603228 8.140206e-02 6.711100e-14 1 
    0.603503 7.978877e-02 6.572100e-14 1 
    0.603778 8.192848e-02 6.742200e-14 1 
    0.604053 8.422038e-02 6.924500e-14 1 
    0.604328 8.263294e-02 6.787800e-14 1 
    0.604603 8.366954e-02 6.866700e-14 1 
    0.604878 8.320783e-02 6.822600e-14 1 
    0.605153 8.260480e-02 6.767000e-14 1 
    0.605428 8.185150e-02 6.699200e-14 1 
    0.605703 8.352057e-02 6.829600e-14 1 
    0.605978 7.972971e-02 6.513700e-14 1 
    0.606253 8.061804e-02 6.580300e-14 1 
    0.606528 8.189905e-02 6.678800e-14 1 
    0.606803 7.965238e-02 6.489700e-14 1 
    0.607078 8.192971e-02 6.669200e-14 1 
    0.607353 8.333930e-02 6.777800e-14 1 
    0.607628 8.561897e-02 6.956900e-14 1 
    0.607903 8.640972e-02 7.014800e-14 1 
    0.608178 8.930517e-02 7.243300e-14 1 
    0.608453 8.780389e-02 7.115100e-14 1 
    0.608728 8.674075e-02 7.022600e-14 1 
    0.609003 8.871436e-02 7.175900e-14 1 
    0.609278 8.951219e-02 7.233900e-14 1 
    0.609553 9.017017e-02 7.280500e-14 1 
    0.609828 8.519260e-02 6.872400e-14 1 
    0.610103 8.798794e-02 7.091500e-14 1 
    0.610378 8.489554e-02 6.836100e-14 1 
    0.610653 8.767431e-02 7.053500e-14 1 
    0.610928 8.758783e-02 7.040200e-14 1 
    0.611203 8.503304e-02 6.828700e-14 1 
    0.611478 8.687939e-02 6.970700e-14 1 
    0.611753 8.993402e-02 7.209300e-14 1 
    0.612028 8.799592e-02 7.047600e-14 1 
    0.612303 8.931599e-02 7.146900e-14 1 
    0.612578 8.751372e-02 6.996400e-14 1 
    0.612853 8.723550e-02 6.967900e-14 1 
    0.613128 8.703437e-02 6.945600e-14 1 
    0.613403 8.652172e-02 6.898500e-14 1 
    0.613678 8.534399e-02 6.798500e-14 1 
    0.613953 8.806911e-02 7.009300e-14 1 
    0.614228 8.620128e-02 6.854500e-14 1 
    0.614503 8.569948e-02 6.808500e-14 1 
    0.614778 8.586061e-02 6.815200e-14 1 
    0.615053 8.300947e-02 6.583000e-14 1 
    0.615328 8.590955e-02 6.806900e-14 1 
    0.615603 8.744159e-02 6.922100e-14 1 
    0.615878 8.906350e-02 7.044200e-14 1 
    0.616153 8.899753e-02 7.032700e-14 1 
    0.616428 8.620685e-02 6.806100e-14 1 
    0.616703 8.519606e-02 6.720300e-14 1 
    0.616978 8.524414e-02 6.718100e-14 1 
    0.617253 8.722261e-02 6.867900e-14 1 
    0.617528 8.410090e-02 6.616200e-14 1 
    0.617803 8.691120e-02 6.831200e-14 1 
    0.618078 8.443160e-02 6.630400e-14 1 
    0.618353 8.354065e-02 6.554600e-14 1 
    0.618628 8.307409e-02 6.512200e-14 1 
    0.618903 8.634253e-02 6.762400e-14 1 
    0.619178 8.943265e-02 6.998200e-14 1 
    0.619453 8.659198e-02 6.769900e-14 1 
    0.619728 8.836644e-02 6.902500e-14 1 
    0.620003 8.676632e-02 6.771500e-14 1 
    0.620278 8.433605e-02 6.576000e-14 1 
    0.620553 8.535560e-02 6.649600e-14 1 
    0.620828 8.162067e-02 6.353000e-14 1 
    0.621103 8.052540e-02 6.262200e-14 1 
    0.621378 7.983223e-02 6.202800e-14 1 
    0.621653 8.044136e-02 6.244600e-14 1 
    0.621928 8.310020e-02 6.445300e-14 1 
    0.622203 8.373892e-02 6.489100e-14 1 
    0.622478 8.570903e-02 6.635900e-14 1 
    0.622753 8.808713e-02 6.814000e-14 1 
    0.623028 8.590714e-02 6.639500e-14 1 
    0.623303 8.684806e-02 6.706300e-14 1 
    0.623578 8.512045e-02 6.567100e-14 1 
    0.623853 8.319120e-02 6.412600e-14 1 
    0.624128 8.188171e-02 6.306100e-14 1 
    0.624403 8.314431e-02 6.397700e-14 1 
    0.624678 8.427377e-02 6.478900e-14 1 
    0.624953 8.494425e-02 6.524700e-14 1 
    0.625228 8.566663e-02 6.574400e-14 1 
    0.625503 8.747656e-02 6.707400e-14 1 
    0.625778 8.638653e-02 6.618000e-14 1 
    0.626053 8.578572e-02 6.566200e-14 1 
    0.626328 8.191078e-02 6.264100e-14 1 
    0.626603 8.167386e-02 6.240500e-14 1 
    0.626878 7.852185e-02 5.994400e-14 1 
    0.627153 8.560760e-02 6.529600e-14 1 
    0.627428 8.452268e-02 6.441200e-14 1 
    0.627703 8.552272e-02 6.511700e-14 1 
    0.627978 8.492596e-02 6.460600e-14 1 
    0.628253 8.508456e-02 6.467000e-14 1 
    0.628528 8.465998e-02 6.429100e-14 1 
    0.628803 8.394461e-02 6.369200e-14 1 
    0.629078 8.509974e-02 6.451200e-14 1 
    0.629353 8.428692e-02 6.384000e-14 1 
    0.629628 8.557632e-02 6.476000e-14 1 
    0.629903 8.503212e-02 6.429200e-14 1 
    0.630178 8.344111e-02 6.303400e-14 1 
    0.630453 8.275875e-02 6.246400e-14 1 
    0.630728 8.519002e-02 6.424300e-14 1 
    0.631003 8.499092e-02 6.403700e-14 1 
    0.631278 8.677331e-02 6.532300e-14 1 
    0.631553 8.613364e-02 6.478500e-14 1 
    0.631828 8.671166e-02 6.516300e-14 1 
    0.632103 8.950946e-02 6.720700e-14 1 
    0.632378 8.645346e-02 6.485600e-14 1 
    0.632653 8.782414e-02 6.582700e-14 1 
    0.632928 9.013318e-02 6.749900e-14 1 
    0.633203 8.789539e-02 6.576600e-14 1 
    0.633478 8.970266e-02 6.706000e-14 1 
    0.633753 9.164953e-02 6.845600e-14 1 
    0.634028 8.956638e-02 6.684200e-14 1 
    0.634303 9.205680e-02 6.864100e-14 1 
    0.634578 8.985070e-02 6.693800e-14 1 
    0.634853 9.188870e-02 6.839700e-14 1 
    0.635128 8.925218e-02 6.637700e-14 1 
    0.635403 8.844934e-02 6.572300e-14 1 
    0.635678 9.147710e-02 6.791400e-14 1 
    0.635953 8.596291e-02 6.376500e-14 1 
    0.636228 8.852401e-02 6.560800e-14 1 
    0.636503 9.400641e-02 6.961100e-14 1 
    0.636778 9.022474e-02 6.675300e-14 1 
    0.637053 8.929621e-02 6.600900e-14 1 
    0.637328 9.063791e-02 6.694300e-14 1 
    0.637603 9.098988e-02 6.714500e-14 1 
    0.637878 9.208696e-02 6.789600e-14 1 
    0.638153 9.343968e-02 6.883400e-14 1 
    0.638428 9.125539e-02 6.716700e-14 1 
    0.638703 9.313712e-02 6.849300e-14 1 
    0.638978 9.246337e-02 6.793900e-14 1 
    0.639253 9.303334e-02 6.829900e-14 1 
    0.639528 9.190278e-02 6.741100e-14 1 
    0.639803 9.105124e-02 6.672900e-14 1 
    0.640078 9.222206e-02 6.752900e-14 1 
    0.640353 8.913162e-02 6.521000e-14 1 
    0.640628 8.825879e-02 6.451600e-14 1 
    0.640903 8.861390e-02 6.472000e-14 1 
    0.641178 8.790885e-02 6.415000e-14 1 
    0.641453 9.056140e-02 6.602900e-14 1 
    0.641728 9.039197e-02 6.584900e-14 1 
    0.642003 9.368850e-02 6.819200e-14 1 
    0.642278 9.418817e-02 6.849700e-14 1 
    0.642553 9.553224e-02 6.941500e-14 1 
    0.642828 9.424486e-02 6.842100e-14 1 
    0.643103 9.601844e-02 6.964900e-14 1 
    0.643378 9.496088e-02 6.882300e-14 1 
    0.643653 9.471203e-02 6.858400e-14 1 
    0.643928 9.441427e-02 6.831000e-14 1 
    0.644203 9.553518e-02 6.906200e-14 1 
    0.644478 9.425995e-02 6.808200e-14 1 
    0.644753 9.546005e-02 6.889000e-14 1 
    0.645028 9.501448e-02 6.851000e-14 1 
    0.645303 9.325495e-02 6.718400e-14 1 
    0.645578 9.259400e-02 6.665100e-14 1 
    0.645853 9.521459e-02 6.847900e-14 1 
    0.646128 9.492274e-02 6.821100e-14 1 
    0.646403 9.542418e-02 6.851300e-14 1 
    0.646678 9.220864e-02 6.614800e-14 1 
    0.646953 9.202618e-02 6.596100e-14 1 
    0.647228 9.449498e-02 6.767300e-14 1 
    0.647503 9.183474e-02 6.571200e-14 1 
    0.647778 9.202185e-02 6.579000e-14 1 
    0.648053 9.169403e-02 6.550000e-14 1 
    0.648328 9.146222e-02 6.527900e-14 1 
    0.648603 9.197734e-02 6.559100e-14 1 
    0.648878 9.246657e-02 6.588400e-14 1 
    0.649153 9.653562e-02 6.872500e-14 1 
    0.649428 9.899192e-02 7.041400e-14 1 
    0.649703 9.625746e-02 6.841100e-14 1 
    0.649978 9.470259e-02 6.724900e-14 1 
    0.650253 9.216543e-02 6.539200e-14 1 
    0.650528 9.257349e-02 6.562600e-14 1 
    0.650803 9.408618e-02 6.664200e-14 1 
    0.651078 9.439603e-02 6.680500e-14 1 
    0.651353 9.358484e-02 6.617500e-14 1 
    0.651628 9.605590e-02 6.786500e-14 1 
    0.651903 9.751675e-02 6.883900e-14 1 
    0.652178 9.513210e-02 6.709900e-14 1 
    0.652453 9.469583e-02 6.673500e-14 1 
    0.652728 9.472597e-02 6.670000e-14 1 
    0.653003 9.661379e-02 6.797200e-14 1 
    0.653278 9.708781e-02 6.824800e-14 1 
    0.653553 9.185036e-02 6.451200e-14 1 
    0.653828 9.296221e-02 6.523800e-14 1 
    0.654103 9.242003e-02 6.480300e-14 1 
    0.654378 9.149574e-02 6.410100e-14 1 
    0.654653 8.931553e-02 6.252100e-14 1 
    0.654928 8.808520e-02 6.160800e-14 1 
    0.655203 9.344805e-02 6.530400e-14 1 
    0.655478 9.347066e-02 6.526500e-14 1 
    0.655753 9.359068e-02 6.529400e-14 1 
    0.656028 9.559438e-02 6.663600e-14 1 
    0.656303 9.988568e-02 6.956900e-14 1 
    0.656578 9.535383e-02 6.635700e-14 1 
    0.656853 9.904788e-02 6.887000e-14 1 
    0.657128 9.420235e-02 6.544600e-14 1 
    0.657403 1.003533e-01 6.966100e-14 1 
    0.657678 9.749603e-02 6.762100e-14 1 
    0.657953 1.013409e-01 7.022900e-14 1 
    0.658228 9.533398e-02 6.601100e-14 1 
    0.658503 9.939869e-02 6.876800e-14 1 
    0.658778 9.669840e-02 6.684400e-14 1 
    0.659053 9.930563e-02 6.858900e-14 1 
    0.659328 9.882339e-02 6.819900e-14 1 
    0.659603 1.002836e-01 6.914900e-14 1 
    0.659878 9.955876e-02 6.859200e-14 1 
    0.660153 9.688313e-02 6.669300e-14 1 
    0.660428 9.357050e-02 6.435900e-14 1 
    0.660703 9.566957e-02 6.574800e-14 1 
    0.660978 9.162934e-02 6.291900e-14 1 
    0.661253 8.928028e-02 6.125500e-14 1 
    0.661528 8.682220e-02 5.951900e-14 1 
    0.661803 8.922009e-02 6.111200e-14 1 
    0.662078 9.243868e-02 6.326400e-14 1 
    0.662353 9.360055e-02 6.400600e-14 1 
    0.662628 1.006947e-01 6.880000e-14 1 
    0.662903 9.968851e-02 6.805600e-14 1 
    0.663178 1.029657e-01 7.023500e-14 1 
    0.663453 1.048837e-01 7.148400e-14 1 
    0.663728 1.008972e-01 6.871000e-14 1 
    0.664003 1.006060e-01 6.845500e-14 1 
    0.664278 1.011542e-01 6.877100e-14 1 
    0.664553 9.784622e-02 6.646700e-14 1 
    0.664828 1.006278e-01 6.830000e-14 1 
    0.665103 1.016931e-01 6.896600e-14 1 
    0.665378 1.023616e-01 6.936200e-14 1 
    0.665653 1.033265e-01 6.995800e-14 1 
    0.665928 1.008931e-01 6.825400e-14 1 
    0.666203 1.029544e-01 6.959100e-14 1 
    0.666478 1.010243e-01 6.823000e-14 1 
    0.666753 1.007031e-01 6.795700e-14 1 
    0.667028 1.050041e-01 7.080100e-14 1 
    0.667303 1.048784e-01 7.065800e-14 1 
    0.667578 1.027886e-01 6.919300e-14 1 
    0.667853 1.060282e-01 7.131500e-14 1 
    0.668128 1.034535e-01 6.952600e-14 1 
    0.668403 1.025231e-01 6.884400e-14 1 
    0.668678 1.025538e-01 6.880800e-14 1 
    0.668953 1.026382e-01 6.880800e-14 1 
    0.669228 1.024986e-01 6.865800e-14 1 
    0.669503 1.034435e-01 6.923400e-14 1 
    0.669778 1.015397e-01 6.790400e-14 1 
    0.670053 1.013013e-01 6.768900e-14 1 
    0.670328 1.028703e-01 6.868100e-14 1 
    0.670603 1.038721e-01 6.929300e-14 1 
    0.670878 1.037923e-01 6.918300e-14 1 
    0.671153 1.023759e-01 6.818300e-14 1 
    0.671428 1.008700e-01 6.712500e-14 1 
    0.671703 9.775072e-02 6.499600e-14 1 
    0.671978 9.873387e-02 6.559600e-14 1 
    0.672253 1.003482e-01 6.661400e-14 1 
    0.672528 1.043472e-01 6.921200e-14 1 
    0.672803 1.042108e-01 6.906500e-14 1 
    0.673078 1.048275e-01 6.941700e-14 1 
    0.673353 1.046442e-01 6.923900e-14 1 
    0.673628 1.052908e-01 6.961000e-14 1 
    0.673903 1.052890e-01 6.955200e-14 1 
    0.674178 1.038205e-01 6.852600e-14 1 
    0.674453 9.833895e-02 6.485500e-14 1 
    0.674728 1.052571e-01 6.936100e-14 1 
    0.675003 1.012347e-01 6.665600e-14 1 
    0.675278 1.000541e-01 6.582500e-14 1 
    0.675553 1.036451e-01 6.813200e-14 1 
    0.675828 1.042502e-01 6.847400e-14 1 
    0.676103 1.014735e-01 6.659600e-14 1 
    0.676378 1.029072e-01 6.748200e-14 1 
    0.676653 9.816808e-02 6.432200e-14 1 
    0.676928 1.012997e-01 6.632000e-14 1 
    0.677203 1.027685e-01 6.722700e-14 1 
    0.677478 9.986562e-02 6.527500e-14 1 
    0.677753 1.047775e-01 6.843000e-14 1 
    0.678028 1.009687e-01 6.588900e-14 1 
    0.678303 1.036563e-01 6.758800e-14 1 
    0.678578 1.058401e-01 6.895600e-14 1 
    0.678853 1.053115e-01 6.855600e-14 1 
    0.679128 1.028278e-01 6.688500e-14 1 
    0.679403 1.010633e-01 6.568400e-14 1 
    0.679678 1.022676e-01 6.641300e-14 1 
    0.679953 1.020237e-01 6.620100e-14 1 
    0.680228 9.970015e-02 6.464100e-14 1 
    0.680503 9.771542e-02 6.330300e-14 1 
    0.680769 9.979701e-02 6.460100e-14 0 
    0.682339 1.025904e-01 6.610400e-14 0 
    0.683912 1.042552e-01 6.686800e-14 0 
    0.685488 1.018808e-01 6.504500e-14 0 
    0.687068 1.025839e-01 6.519300e-14 0 
    0.688652 1.035317e-01 6.549300e-14 0 
    0.690240 9.978534e-02 6.283300e-14 0 
    0.691831 9.978322e-02 6.254300e-14 0 
    0.693426 1.028131e-01 6.414600e-14 0 
    0.695024 1.032843e-01 6.414400e-14 0 
    0.696626 1.039988e-01 6.429100e-14 0 
    0.698233 1.035187e-01 6.370000e-14 0 
    0.699842 1.074003e-01 6.578500e-14 0 
    0.701455 1.069053e-01 6.518100e-14 0 
    0.703072 1.098984e-01 6.669800e-14 0 
    0.704693 1.104024e-01 6.669600e-14 0 
    0.706318 1.088867e-01 6.547800e-14 0 
    0.707946 1.068966e-01 6.398600e-14 0 
    0.709578 1.121901e-01 6.684600e-14 0 
    0.711214 1.142727e-01 6.777400e-14 0 
    0.712853 1.066440e-01 6.295900e-14 0 
    0.714496 1.096291e-01 6.442400e-14 0 
    0.716143 1.088718e-01 6.368500e-14 0 
    0.717794 1.093727e-01 6.368400e-14 0 
    0.719449 1.042063e-01 6.039700e-14 0 
    0.721108 1.044448e-01 6.025700e-14 0 
    0.722770 1.039621e-01 5.970300e-14 0 
    0.724436 1.054076e-01 6.025500e-14 0 
    0.726106 1.083580e-01 6.165700e-14 0 
    0.727780 1.106238e-01 6.265700e-14 0 
    0.729457 1.129380e-01 6.367400e-14 0 
    0.731139 1.161002e-01 6.515600e-14 0 
    0.732825 1.142411e-01 6.381800e-14 0 
    0.734514 1.145022e-01 6.367000e-14 0 
    0.736207 1.185229e-01 6.560300e-14 0 
    0.737904 1.196163e-01 6.590400e-14 0 
    0.739605 1.204437e-01 6.605500e-14 0 
    0.741310 1.223973e-01 6.681800e-14 0 
    0.743019 1.212730e-01 6.590000e-14 0 
    0.744732 1.226740e-01 6.635500e-14 0 
    0.746449 1.218269e-01 6.559400e-14 0 
    0.748170 1.201521e-01 6.439500e-14 0 
    0.749894 1.261031e-01 6.727400e-14 0 
    0.751623 1.266815e-01 6.727200e-14 0 
    0.753356 1.275577e-01 6.742600e-14 0 
    0.755092 1.281424e-01 6.742400e-14 0 
    0.756833 1.290281e-01 6.757800e-14 0 
    0.758578 1.311218e-01 6.835900e-14 0 
    0.760326 1.314204e-01 6.820000e-14 0 
    0.762079 1.311153e-01 6.772900e-14 0 
    0.763836 1.281285e-01 6.588200e-14 0 
    0.765597 1.278310e-01 6.542700e-14 0 
    0.767361 1.266562e-01 6.452800e-14 0 
    0.769130 1.281183e-01 6.497300e-14 0 
    0.770904 1.272342e-01 6.422800e-14 0 
    0.772681 1.234790e-01 6.204600e-14 0 
    0.774462 1.251945e-01 6.261900e-14 0 
    0.776247 1.237577e-01 6.161600e-14 0 
    0.778037 1.234715e-01 6.119100e-14 0 
    0.779830 1.272198e-01 6.275900e-14 0 
    0.781628 1.195472e-01 5.870300e-14 0 
    0.783430 1.266294e-01 6.189500e-14 0 
    0.785236 1.272098e-01 6.189300e-14 0 
    0.787046 1.274996e-01 6.174900e-14 0 
    0.788860 1.322823e-01 6.377100e-14 0 
    0.790679 1.289712e-01 6.188900e-14 0 
    0.792501 1.322753e-01 6.318300e-14 0 
    0.794328 1.313610e-01 6.245800e-14 0 
    0.796159 1.325737e-01 6.274500e-14 0 
    0.797995 1.295540e-01 6.103400e-14 0 
    0.799834 1.301476e-01 6.103200e-14 0 
    0.801678 1.271836e-01 5.936800e-14 0 
    0.803526 1.331726e-01 6.187800e-14 0 
    0.805378 1.359579e-01 6.288200e-14 0 
    0.807235 1.343983e-01 6.187500e-14 0 
    0.809096 1.384796e-01 6.346100e-14 0 
    0.810961 1.410500e-01 6.434200e-14 0 
    0.812831 1.416991e-01 6.434100e-14 0 
    0.814704 1.391094e-01 6.287500e-14 0 
    0.816582 1.365663e-01 6.144200e-14 0 
    0.818465 1.416874e-01 6.345300e-14 0 
    0.820352 1.410336e-01 6.287000e-14 0 
    0.822243 1.407065e-01 6.243600e-14 0 
    0.824138 1.400563e-01 6.186200e-14 0 
    0.826038 1.359219e-01 5.976000e-14 0 
    0.827942 1.439730e-01 6.300900e-14 0 
    0.829851 1.359148e-01 5.920900e-14 0 
    0.831764 1.476576e-01 6.402900e-14 0 
    0.833681 1.483366e-01 6.402800e-14 0 
    0.835603 1.439569e-01 6.185200e-14 0 
    0.837529 1.429635e-01 6.114300e-14 0 
    0.839460 1.400272e-01 5.961200e-14 0 
    0.841395 1.436162e-01 6.085900e-14 0 
    0.843335 1.466191e-01 6.184600e-14 0 
    0.845279 1.446046e-01 6.071600e-14 0 
    0.847227 1.452671e-01 6.071400e-14 0 
    0.849180 1.472836e-01 6.127400e-14 0 
    0.851138 1.377684e-01 5.705200e-14 0 
    0.853100 1.429335e-01 5.891900e-14 0 
    0.855067 1.469347e-01 6.029000e-14 0 
    0.857038 1.352412e-01 5.523700e-14 0 
    0.859014 1.383892e-01 5.626300e-14 0 
    0.860994 1.429198e-01 5.783800e-14 0 
    0.862979 1.455729e-01 5.864100e-14 0 
    0.864968 1.465764e-01 5.877400e-14 0 
    0.866962 1.469122e-01 5.863800e-14 0 
    0.868960 1.445572e-01 5.743300e-14 0 
    0.870964 1.479228e-01 5.850000e-14 0 
    0.872971 1.448838e-01 5.703500e-14 0 
    0.874984 1.412577e-01 5.535200e-14 0 
    0.877001 1.442120e-01 5.625000e-14 0 
    0.879023 1.462145e-01 5.676900e-14 0 
    0.881049 1.503048e-01 5.808900e-14 0 
    0.883080 1.485811e-01 5.715900e-14 0 
    0.885116 1.465380e-01 5.611400e-14 0 
    0.887156 1.499479e-01 5.715600e-14 0 
    0.889201 1.541454e-01 5.848600e-14 0 
    0.891251 1.537873e-01 5.808200e-14 0 
    0.893305 1.555636e-01 5.848300e-14 0 
    0.895365 1.465201e-01 5.483000e-14 0 
    0.897429 1.513146e-01 5.636400e-14 0 
    0.899498 1.523583e-01 5.649200e-14 0 
    0.901571 1.551883e-01 5.727700e-14 0 
    0.903650 1.520015e-01 5.584300e-14 0 
    0.905733 1.512976e-01 5.532900e-14 0 
    0.907820 1.481909e-01 5.394400e-14 0 
    0.909913 1.488722e-01 5.394300e-14 0 
    0.912011 1.636052e-01 5.900900e-14 0 
    0.914113 1.540935e-01 5.532300e-14 0 
    0.916220 1.558736e-01 5.570500e-14 0 
    0.918333 1.602366e-01 5.700100e-14 0 
    0.920450 1.635885e-01 5.792600e-14 0 
    0.922571 1.544332e-01 5.443300e-14 0 
    0.924698 1.554995e-01 5.455700e-14 0 
    0.926830 1.583850e-01 5.531400e-14 0 
    0.928966 1.537107e-01 5.343500e-14 0 
    0.931108 1.502070e-01 5.197700e-14 0 
    0.933254 1.576443e-01 5.430000e-14 0 
    0.935406 1.624292e-01 5.569100e-14 0 
    0.937562 1.536912e-01 5.245300e-14 0 
    0.939723 1.627957e-01 5.530500e-14 0 
    0.941890 1.627903e-01 5.504900e-14 0 
    0.944061 1.620384e-01 5.454300e-14 0 
    0.946237 1.639084e-01 5.491900e-14 0 
    0.948418 1.624011e-01 5.416400e-14 0 
    0.950605 1.650366e-01 5.479000e-14 0 
    0.952796 1.642731e-01 5.428600e-14 0 
    0.954993 1.661685e-01 5.466000e-14 0 
    0.957194 1.665475e-01 5.453300e-14 0 
    0.959401 1.657792e-01 5.403200e-14 0 
    0.961612 1.634989e-01 5.304400e-14 0 
    0.963829 1.657678e-01 5.353300e-14 0 
    0.966051 1.676841e-01 5.390300e-14 0 
    0.968278 1.665236e-01 5.328400e-14 0 
    0.970510 1.672890e-01 5.328300e-14 0 
    0.972747 1.661308e-01 5.267100e-14 0 
    0.974990 1.665081e-01 5.254800e-14 0 
    0.977237 1.684320e-01 5.291100e-14 0 
    0.979490 1.676521e-01 5.242400e-14 0 
    0.981748 1.668774e-01 5.194200e-14 0 
    0.984011 1.676444e-01 5.194100e-14 0 
    0.986279 1.664855e-01 5.134500e-14 0 
    0.988553 1.691858e-01 5.193800e-14 0 
    0.990832 1.691781e-01 5.169700e-14 0 
    0.993116 1.699557e-01 5.169600e-14 0 
    0.995405 1.695576e-01 5.133800e-14 0 
    0.997700 1.699456e-01 5.121900e-14 0 
    1.000000 1.695500e-01 5.086500e-14 0 
    1.002305 1.699340e-01 5.074600e-14 0 
    1.004615 1.703213e-01 5.062800e-14 0 
    1.006931 1.707086e-01 5.051000e-14 0 
    1.009253 1.699181e-01 5.004500e-14 0 
    1.016249 1.699031e-01 4.935400e-14 0 
    1.020939 1.714645e-01 4.935100e-14 0 
    1.025652 1.706668e-01 4.867100e-14 0 
    1.030386 1.718389e-01 4.855600e-14 0 
    1.035142 1.726217e-01 4.833000e-14 0 
    1.037528 1.722199e-01 4.799600e-14 0 
    1.059254 1.733632e-01 4.635300e-14 0 
    1.078947 1.721433e-01 4.436200e-14 0 
    1.099006 1.717471e-01 4.265900e-14 0 
    1.119437 1.717469e-01 4.111600e-14 0 
    1.137628 1.713561e-01 3.972100e-14 0 
    1.158778 1.741389e-01 3.890600e-14 0 
    1.180321 1.745394e-01 3.758500e-14 0 
    1.199499 1.741377e-01 3.630900e-14 0 
    1.218990 1.745381e-01 3.523800e-14 0 
    1.238796 1.761534e-01 3.443600e-14 0 
    1.258925 1.769691e-01 3.349800e-14 0 
    1.279381 1.777855e-01 3.258500e-14 0 
    1.300169 1.786062e-01 3.169700e-14 0 
    1.321295 1.802560e-01 3.097500e-14 0 
    1.339676 1.802569e-01 3.013100e-14 0 
    1.361444 1.827642e-01 2.958100e-14 0 
    1.380384 1.840293e-01 2.897400e-14 0 
    1.399587 1.840334e-01 2.818500e-14 0 
    1.422328 1.844587e-01 2.735400e-14 0 
    1.442115 1.861605e-01 2.685400e-14 0 
    1.462177 1.904995e-01 2.673100e-14 0 
    1.482518 1.905031e-01 2.600300e-14 0 
    1.503142 1.958404e-01 2.600300e-14 0 
    1.520548 1.990227e-01 2.582400e-14 0 
    1.541701 2.055414e-01 2.594300e-14 0 
    1.563147 2.093611e-01 2.570500e-14 0 
    1.581248 2.112958e-01 2.535200e-14 0 
    1.603245 2.112950e-01 2.466100e-14 0 
    1.621810 2.157258e-01 2.460500e-14 0 
    1.644372 2.197328e-01 2.437900e-14 0 
    1.663413 2.197322e-01 2.382400e-14 0 
    1.682673 2.197346e-01 2.328200e-14 0 
    1.702158 2.187203e-01 2.264700e-14 0 
    1.721869 2.172135e-01 2.197900e-14 0 
    1.741808 2.137480e-01 2.113600e-14 0 
    1.761975 2.122688e-01 2.051200e-14 0 
    1.782379 2.093560e-01 1.977000e-14 0 
    1.803018 2.074383e-01 1.914300e-14 0 
    1.823896 2.041200e-01 1.840800e-14 0 
    1.845014 2.031893e-01 1.790700e-14 0 
    1.866379 2.017916e-01 1.737900e-14 0 
    1.883649 1.976547e-01 1.671200e-14 0 
    1.905462 1.962924e-01 1.621900e-14 0 
    1.923091 1.949363e-01 1.581300e-14 0 
    1.945360 1.922614e-01 1.524100e-14 0 
    1.963361 1.878823e-01 1.462200e-14 0 
    1.986094 1.870252e-01 1.422400e-14 0 
    2.004472 1.844622e-01 1.377300e-14 0 
    2.027683 1.853052e-01 1.352100e-14 0 
    2.046444 1.819238e-01 1.303200e-14 0 
    2.065380 1.815096e-01 1.276500e-14 0 
    2.084490 1.794236e-01 1.238800e-14 0 
    2.108628 1.786083e-01 1.205100e-14 0 
    2.128139 1.777774e-01 1.177600e-14 0 
    2.147829 1.761616e-01 1.145600e-14 0 
    2.167704 1.749415e-01 1.116900e-14 0 
    2.187762 1.721473e-01 1.079000e-14 0 
    2.208004 1.717562e-01 1.056900e-14 0 
    2.228435 1.697849e-01 1.025700e-14 0 
    2.249056 1.678396e-01 9.954400e-15 0 
    2.269865 1.666834e-01 9.705400e-15 0 
    2.285600 1.643965e-01 9.440900e-15 0 
    2.306747 1.513191e-01 8.531300e-15 0 
    2.328092 1.527197e-01 8.453100e-15 0 
    2.349632 1.373715e-01 7.464800e-15 0 
    2.365920 1.320972e-01 7.079700e-15 0 
    2.387810 1.361114e-01 7.161700e-15 0 
    2.409905 1.276133e-01 6.592000e-15 0 
    2.426611 1.258615e-01 6.412300e-15 0 
    2.449063 1.270257e-01 6.353500e-15 0 
    2.471725 1.218688e-01 5.984300e-15 0 
    2.488857 1.224325e-01 5.929500e-15 0 
    2.511887 1.078685e-01 5.128800e-15 0 
    2.529297 1.081172e-01 5.070100e-15 0 
    2.546831 1.101274e-01 5.093500e-15 0 
    2.570395 1.111462e-01 5.046800e-15 0 
    2.588213 1.137353e-01 5.093500e-15 0 
    2.612160 1.134728e-01 4.989000e-15 0 
    2.630268 1.139976e-01 4.943300e-15 0 
    2.648499 1.126934e-01 4.819700e-15 0 
    2.673007 1.132120e-01 4.753500e-15 0 
    2.691534 1.124324e-01 4.656000e-15 0 
    2.710192 1.121750e-01 4.581600e-15 0 
    2.728977 1.116601e-01 4.498000e-15 0 
    2.754229 1.114022e-01 4.405700e-15 0 
    2.773319 1.108906e-01 4.325300e-15 0 
    2.792545 1.098729e-01 4.226800e-15 0 
    2.811900 1.096222e-01 4.159300e-15 0 
    2.831393 1.088653e-01 4.073900e-15 0 
    2.851018 1.081173e-01 3.990400e-15 0 
    2.870782 1.073716e-01 3.908500e-15 0 
    2.890680 1.063890e-01 3.819600e-15 0 
    2.910719 1.059007e-01 3.749900e-15 0 
    2.930893 1.049285e-01 3.664500e-15 0 
    2.951208 1.042049e-01 3.589300e-15 0 
    2.971666 1.032497e-01 3.507600e-15 0 
    2.992263 1.027758e-01 3.443600e-15 0 
    3.013007 1.018333e-01 3.365200e-15 0 
    3.033890 1.011328e-01 3.296200e-15 0 
    3.054922 1.004369e-01 3.228600e-15 0 
    3.076096 9.997622e-02 3.169700e-15 0 
    3.090294 9.905810e-02 3.111800e-15 0 
    3.111717 9.837707e-02 3.048000e-15 0 
    3.133284 9.770017e-02 2.985500e-15 0 
    3.155005 9.725114e-02 2.931000e-15 0 
    3.176873 9.658208e-02 2.870900e-15 0 
    3.191539 9.547604e-02 2.812000e-15 0 
    3.213660 9.503811e-02 2.760700e-15 0 
    3.235938 9.438477e-02 2.704100e-15 0 
    3.258367 9.373356e-02 2.648600e-15 0 
    3.273406 9.266137e-02 2.594300e-15 0 
    3.296098 9.223396e-02 2.546900e-15 0 
    3.318944 9.202257e-02 2.506200e-15 0 
    3.334262 9.118042e-02 2.460500e-15 0 
    3.357376 8.972117e-02 2.387900e-15 0 
    3.372872 8.869315e-02 2.338900e-15 0 
    3.396254 8.788166e-02 2.285700e-15 0 
    3.419794 8.707701e-02 2.233700e-15 0 
    3.435578 8.588006e-02 2.182800e-15 0 
    3.459394 8.528773e-02 2.138000e-15 0 
    3.475361 8.431342e-02 2.094200e-15 0 
    3.499453 8.373116e-02 2.051200e-15 0 
    3.515604 8.277550e-02 2.009200e-15 0 
    3.539971 8.220595e-02 1.968000e-15 0 
    3.556314 8.107807e-02 1.923200e-15 0 
    3.580964 8.070560e-02 1.888100e-15 0 
    3.597495 7.959742e-02 1.845100e-15 0 
    3.614099 7.868375e-02 1.807200e-15 0 
    3.639149 7.832590e-02 1.774300e-15 0 
    3.655950 7.742906e-02 1.737900e-15 0 
    3.681289 7.671724e-02 1.698300e-15 0 
    3.698280 7.584049e-02 1.663500e-15 0 
    3.715354 7.479849e-02 1.625600e-15 0 
    3.741105 7.428540e-02 1.592300e-15 0 
    3.758372 7.360254e-02 1.563200e-15 0 
    3.775723 7.259198e-02 1.527600e-15 0 
    3.801893 7.242613e-02 1.503200e-15 0 
    3.819441 7.159854e-02 1.472400e-15 0 
    3.837073 7.094095e-02 1.445500e-15 0 
    3.863669 7.061413e-02 1.419100e-15 0 
    3.881506 6.980621e-02 1.390000e-15 0 
    3.899421 6.900756e-02 1.361500e-15 0 
    3.917418 6.837227e-02 1.336600e-15 0 
    3.944575 6.790241e-02 1.309200e-15 0 
    3.962781 6.727959e-02 1.285300e-15 0 
    3.981071 6.651267e-02 1.259000e-15 0 
    3.999450 6.590188e-02 1.236000e-15 0 
    4.017909 6.499948e-02 1.207900e-15 0 
    4.036454 6.454728e-02 1.188500e-15 0 
    4.064435 6.425586e-02 1.166900e-15 0 
    4.083195 6.351659e-02 1.142900e-15 0 
    4.102040 6.307781e-02 1.124600e-15 0 
    4.120973 6.264814e-02 1.106700e-15 0 
    4.139998 6.207386e-02 1.086500e-15 0 
    4.159106 6.164488e-02 1.069100e-15 0 
    4.178302 6.108045e-02 1.049600e-15 0 
    4.197591 6.051804e-02 1.030400e-15 0 
    4.226686 6.024035e-02 1.011600e-15 0 
    4.246193 5.968883e-02 9.931500e-16 0 
    4.265796 5.941508e-02 9.795300e-16 0 
    4.285485 5.887023e-02 9.616500e-16 0 
    4.305264 5.846465e-02 9.462700e-16 0 
    4.325140 5.661000e-02 9.078500e-16 0 
    4.345102 5.481404e-02 8.709900e-16 0 
    4.365157 5.519418e-02 8.689900e-16 0 
    4.385309 5.332033e-02 8.317900e-16 0 
    4.405549 5.807649e-02 8.976800e-16 0 
    4.425883 5.774280e-02 8.843400e-16 0 
    4.446310 5.739400e-02 8.709400e-16 0 
    4.466837 5.702995e-02 8.574800e-16 0 
    4.487454 5.664942e-02 8.439500e-16 0 
    4.508165 5.632740e-02 8.314600e-16 0 
    4.528977 5.599334e-02 8.189500e-16 0 
    4.549880 5.564332e-02 8.063700e-16 0 
    4.560368 5.546340e-02 8.000700e-16 0 
    4.581416 5.510340e-02 7.875900e-16 0 
    4.602567 5.479003e-02 7.759300e-16 0 
    4.623810 5.446245e-02 7.642200e-16 0 
    4.645151 5.411979e-02 7.524500e-16 0 
    4.666595 5.376260e-02 7.406300e-16 0 
    4.688134 5.345269e-02 7.296100e-16 0 
    4.709772 5.313834e-02 7.186700e-16 0 
    4.731515 5.280999e-02 7.076800e-16 0 
    4.742421 5.264065e-02 7.021700e-16 0 
    4.764310 5.229542e-02 6.911700e-16 0 
    4.786299 5.200113e-02 6.809800e-16 0 
    4.808395 5.169317e-02 6.707400e-16 0 
    4.830588 5.137108e-02 6.604500e-16 0 
    4.852884 5.103468e-02 6.501100e-16 0 
    4.864070 5.087985e-02 6.451600e-16 0 
    4.886525 5.059138e-02 6.356200e-16 0 
    4.909079 5.028911e-02 6.260300e-16 0 
    4.931736 4.997364e-02 6.164000e-16 0 
    4.943104 4.981090e-02 6.115700e-16 0 
    4.965924 4.950575e-02 6.022500e-16 0 
    4.988845 4.922296e-02 5.933200e-16 0 
    5.011870 4.892731e-02 5.843500e-16 0 
    5.023429 4.877390e-02 5.798400e-16 0 
    5.046614 4.845771e-02 5.708000e-16 0 
    5.069906 4.817176e-02 5.622300e-16 0 
    5.093306 4.789455e-02 5.538700e-16 0 
    5.105052 4.775085e-02 5.496700e-16 0 
    5.116820 4.760383e-02 5.454600e-16 0 
    5.128614 4.745442e-02 5.412500e-16 0 
    5.140436 4.730087e-02 5.370200e-16 0 
    5.152285 4.714489e-02 5.327900e-16 0 
    5.164162 4.700780e-02 5.288000e-16 0 
    5.176071 4.687657e-02 5.249000e-16 0 
    5.188002 4.674212e-02 5.209900e-16 0 
    5.199961 4.660454e-02 5.170700e-16 0 
    5.211947 4.646379e-02 5.131400e-16 0 
    5.223961 4.631983e-02 5.092000e-16 0 
    5.236003 4.617266e-02 5.052500e-16 0 
    5.248072 4.602311e-02 5.013000e-16 0 
    5.260175 4.587409e-02 4.973800e-16 0 
    5.272300 4.574762e-02 4.937300e-16 0 
    5.284453 4.561900e-02 4.900800e-16 0 
    5.296634 4.548636e-02 4.864100e-16 0 
    5.308843 4.535152e-02 4.827400e-16 0 
    5.321080 4.521351e-02 4.790600e-16 0 
    5.333352 4.507243e-02 4.753700e-16 0 
    5.345646 4.492898e-02 4.716800e-16 0 
    5.357968 4.478133e-02 4.679700e-16 0 
    5.370318 4.464769e-02 4.644300e-16 0 
    5.382697 4.452347e-02 4.610100e-16 0 
    5.395105 4.439715e-02 4.575900e-16 0 
    5.407541 4.426773e-02 4.541600e-16 0 
    5.420011 4.413528e-02 4.507200e-16 0 
    5.432505 4.399960e-02 4.472700e-16 0 
    5.445027 4.386172e-02 4.438200e-16 0 
    5.457579 4.372066e-02 4.403600e-16 0 
    5.470159 4.357634e-02 4.368900e-16 0 
    5.482768 4.345581e-02 4.336800e-16 0 
    5.495406 4.333526e-02 4.304900e-16 0 
    5.508079 4.321073e-02 4.272800e-16 0 
    5.520776 4.308406e-02 4.240700e-16 0 
    5.533502 4.295425e-02 4.208500e-16 0 
    5.546257 4.282132e-02 4.176200e-16 0 
    5.559041 4.268623e-02 4.143900e-16 0 
    5.571855 4.254692e-02 4.111400e-16 0 
    5.584705 4.241591e-02 4.079900e-16 0 
    5.597578 4.229939e-02 4.050000e-16 0 
    5.610481 4.217985e-02 4.020000e-16 0 
    5.623413 4.205829e-02 3.990000e-16 0 
    5.636376 4.193367e-02 3.959900e-16 0 
    5.649368 4.180699e-02 3.929800e-16 0 
    5.662390 4.167718e-02 3.899600e-16 0 
    5.675448 4.154430e-02 3.869300e-16 0 
    5.688531 4.140814e-02 3.838900e-16 0 
    5.701643 4.128934e-02 3.810300e-16 0 
    5.714786 4.117619e-02 3.782400e-16 0 
    5.727959 4.105892e-02 3.754300e-16 0 
    5.741162 4.093969e-02 3.726200e-16 0 
    5.754402 4.081747e-02 3.698000e-16 0 
    5.767667 4.069317e-02 3.669800e-16 0 
    5.780962 4.056462e-02 3.641400e-16 0 
    5.794287 4.043512e-02 3.613100e-16 0 
    5.807643 4.030582e-02 3.585000e-16 0 
    5.821030 4.019592e-02 3.558800e-16 0 
    5.834448 4.008416e-02 3.532600e-16 0 
    5.847904 3.996946e-02 3.506300e-16 0 
    5.861383 3.985274e-02 3.480000e-16 0 
    5.874894 3.973296e-02 3.453600e-16 0 
    5.888436 3.961005e-02 3.427100e-16 0 
    5.902009 3.948517e-02 3.400600e-16 0 
    5.915614 3.935714e-02 3.374000e-16 0 
    5.929250 3.924113e-02 3.348600e-16 0 
    5.942924 3.913390e-02 3.324100e-16 0 
    5.956623 3.902358e-02 3.299500e-16 0 
    5.970353 3.891139e-02 3.274900e-16 0 
    5.984115 3.879735e-02 3.250300e-16 0 
    5.997909 3.867903e-02 3.225500e-16 0 
    6.011735 3.855879e-02 3.200700e-16 0 
    6.025599 3.843669e-02 3.175900e-16 0 
    6.039488 3.831134e-02 3.151000e-16 0 
    6.053410 3.820724e-02 3.128000e-16 0 
    6.067363 3.810134e-02 3.105000e-16 0 
    6.081349 3.799367e-02 3.082000e-16 0 
    6.095367 3.788419e-02 3.059000e-16 0 
    6.109417 3.777163e-02 3.035900e-16 0 
    6.123506 3.765607e-02 3.012700e-16 0 
    6.137621 3.753855e-02 2.989500e-16 0 
    6.151769 3.741788e-02 2.966200e-16 0 
    6.165950 3.730292e-02 2.943500e-16 0 
    6.180162 3.720262e-02 2.922100e-16 0 
    6.194408 3.709934e-02 2.900600e-16 0 
    6.208693 3.699310e-02 2.879000e-16 0 
    6.223005 3.688503e-02 2.857400e-16 0 
    6.237350 3.677516e-02 2.835800e-16 0 
    6.251727 3.666218e-02 2.814100e-16 0 
    6.266138 3.654607e-02 2.792300e-16 0 
    6.280582 3.642811e-02 2.770500e-16 0 
    6.295059 3.632545e-02 2.750000e-16 0 
    6.309576 3.622646e-02 2.729900e-16 0 
    6.324120 3.612569e-02 2.709800e-16 0 
    6.338698 3.602190e-02 2.689600e-16 0 
    6.353309 3.591502e-02 2.669300e-16 0 
    6.367954 3.580639e-02 2.649000e-16 0 
    6.382632 3.569599e-02 2.628700e-16 0 
    6.397352 3.558253e-02 2.608300e-16 0 
    6.412098 3.546991e-02 2.588100e-16 0 
    6.426879 3.537478e-02 2.569300e-16 0 
    6.441693 3.527801e-02 2.550500e-16 0 
    6.456541 3.517820e-02 2.531600e-16 0 
    6.471424 3.507673e-02 2.512700e-16 0 
    6.486341 3.497216e-02 2.493700e-16 0 
    6.501300 3.486597e-02 2.474700e-16 0 
    6.516286 3.475796e-02 2.455700e-16 0 
    6.531306 3.464679e-02 2.436600e-16 0 
    6.546361 3.454529e-02 2.418300e-16 0 
    6.561452 3.445217e-02 2.400700e-16 0 
    6.576576 3.435599e-02 2.383000e-16 0 
    6.591735 3.425964e-02 2.365400e-16 0 
    6.606937 3.415884e-02 2.347600e-16 0 
    6.622166 3.405630e-02 2.329800e-16 0 
    6.637431 3.395210e-02 2.312000e-16 0 
    6.652731 3.384621e-02 2.294200e-16 0 
    6.668066 3.373712e-02 2.276300e-16 0 
    6.683436 3.364566e-02 2.259700e-16 0 
    6.698849 3.355422e-02 2.243200e-16 0 
    6.714291 3.346114e-02 2.226700e-16 0 
    6.729768 3.336498e-02 2.210100e-16 0 
    6.745280 3.326720e-02 2.193500e-16 0 
    6.760829 3.316784e-02 2.176900e-16 0 
    6.776412 3.306529e-02 2.160200e-16 0 
    6.792033 3.295957e-02 2.143400e-16 0 
    6.807696 3.285995e-02 2.127100e-16 0 
    6.823389 3.277263e-02 2.111700e-16 0 
    6.839117 3.268222e-02 2.096200e-16 0 
    6.854882 3.259029e-02 2.080700e-16 0 
    6.870683 3.249681e-02 2.065200e-16 0 
    6.886520 3.240019e-02 2.049600e-16 0 
    6.902402 3.230206e-02 2.034000e-16 0 
    6.918312 3.220225e-02 2.018400e-16 0 
    6.934259 3.209924e-02 2.002700e-16 0 
    6.950243 3.200908e-02 1.987900e-16 0 
    6.966264 3.192388e-02 1.973500e-16 0 
    6.982322 3.183559e-02 1.959000e-16 0 
    6.998416 3.174579e-02 1.944500e-16 0 
    7.014556 3.165293e-02 1.929900e-16 0 
    7.030725 3.155846e-02 1.915300e-16 0 
    7.046931 3.146244e-02 1.900700e-16 0 
    7.063175 3.136320e-02 1.886000e-16 0 
    7.079456 3.126572e-02 1.871500e-16 0 
    7.095775 3.118345e-02 1.858000e-16 0 
    7.112139 3.109813e-02 1.844400e-16 0 
    7.128533 3.101130e-02 1.830800e-16 0 
    7.144965 3.092300e-02 1.817200e-16 0 
    7.161434 3.083323e-02 1.803600e-16 0 
    7.177942 3.074025e-02 1.789900e-16 0 
    7.194488 3.064576e-02 1.776200e-16 0 
    7.211072 3.054801e-02 1.762400e-16 0 
    7.227702 3.046096e-02 1.749300e-16 0 
    7.244362 3.037937e-02 1.736600e-16 0 
    7.261061 3.029640e-02 1.723900e-16 0 
    7.277798 3.021200e-02 1.711200e-16 0 
    7.294573 3.012440e-02 1.698400e-16 0 
    7.311388 3.003537e-02 1.685600e-16 0 
    7.328241 2.994485e-02 1.672800e-16 0 
    7.345141 2.985114e-02 1.659900e-16 0 
    7.362073 2.975586e-02 1.647000e-16 0 
    7.379043 2.967721e-02 1.635100e-16 0 
    7.396052 2.959721e-02 1.623200e-16 0 
    7.413101 2.951583e-02 1.611300e-16 0 
    7.430188 2.943306e-02 1.599400e-16 0 
    7.447323 2.934712e-02 1.587400e-16 0 
    7.464490 2.925970e-02 1.575400e-16 0 
    7.481696 2.917084e-02 1.563400e-16 0 
    7.498942 2.908055e-02 1.551400e-16 0 
    7.516227 2.899255e-02 1.539600e-16 0 
    7.533553 2.891638e-02 1.528500e-16 0 
    7.550919 2.883888e-02 1.517400e-16 0 
    7.568332 2.875820e-02 1.506200e-16 0 
    7.585778 2.867611e-02 1.495000e-16 0 
    7.603263 2.859263e-02 1.483800e-16 0 
    7.620790 2.850779e-02 1.472600e-16 0 
    7.638356 2.841960e-02 1.461300e-16 0 
    7.655963 2.832999e-02 1.450000e-16 0 
    7.673619 2.825275e-02 1.439400e-16 0 
    7.691307 2.817807e-02 1.429000e-16 0 
    7.709036 2.810012e-02 1.418500e-16 0 
    7.726806 2.802086e-02 1.408000e-16 0 
    7.744617 2.794226e-02 1.397600e-16 0 
    7.762469 2.785832e-02 1.387000e-16 0 
    7.780362 2.777503e-02 1.376500e-16 0 
    7.798305 2.768841e-02 1.365900e-16 0 
    7.816280 2.760441e-02 1.355500e-16 0 
    7.834298 2.753133e-02 1.345700e-16 0 
    7.852356 2.745903e-02 1.336000e-16 0 
    7.870456 2.738341e-02 1.326200e-16 0 
    7.888598 2.730444e-02 1.316300e-16 0 
    7.906782 2.722624e-02 1.306500e-16 0 
    7.925016 2.714470e-02 1.296600e-16 0 
    7.943284 2.706388e-02 1.286800e-16 0 
    7.961594 2.697961e-02 1.276900e-16 0 
    7.979946 2.690248e-02 1.267400e-16 0 
    7.998341 2.683046e-02 1.258200e-16 0 
    8.016777 2.675935e-02 1.249100e-16 0 
    8.035265 2.668491e-02 1.239900e-16 0 
    8.053787 2.660916e-02 1.230700e-16 0 
    8.072352 2.653215e-02 1.221500e-16 0 
    8.090959 2.645167e-02 1.212200e-16 0 
    8.109609 2.637207e-02 1.203000e-16 0 
    8.128302 2.628897e-02 1.193700e-16 0 
    8.147038 2.622003e-02 1.185100e-16 0 
    8.165827 2.614996e-02 1.176500e-16 0 
    8.184650 2.607862e-02 1.167900e-16 0 
    8.203516 2.600606e-02 1.159300e-16 0 
    8.222426 2.593228e-02 1.150700e-16 0 
    8.241379 2.585500e-02 1.142000e-16 0 
    8.260376 2.577873e-02 1.133400e-16 0 
    8.279426 2.569898e-02 1.124700e-16 0 
    8.298510 2.562247e-02 1.116200e-16 0 
    8.317639 2.555624e-02 1.108200e-16 0 
    8.336812 2.548886e-02 1.100200e-16 0 
    8.356029 2.541798e-02 1.092100e-16 0 
    8.375290 2.534590e-02 1.084000e-16 0 
    8.394596 2.527262e-02 1.075900e-16 0 
    8.413955 2.519817e-02 1.067800e-16 0 
    8.433350 2.512245e-02 1.059700e-16 0 
    8.452789 2.504310e-02 1.051500e-16 0 
    8.472273 2.497684e-02 1.043900e-16 0 
    8.491803 2.490945e-02 1.036300e-16 0 
    8.511377 2.484331e-02 1.028800e-16 0 
    8.531005 2.477607e-02 1.021300e-16 0 
    8.550670 2.470521e-02 1.013700e-16 0 
    8.570380 2.463315e-02 1.006100e-16 0 
    8.590135 2.455967e-02 9.984900e-17 0 
    8.609937 2.448473e-02 9.908700e-17 0 
    8.629783 2.441007e-02 9.833100e-17 0 
    8.649675 2.434741e-02 9.762800e-17 0 
    8.669623 2.428295e-02 9.692200e-17 0 
    8.689607 2.421708e-02 9.621500e-17 0 
    8.709637 2.414983e-02 9.550700e-17 0 
    8.729713 2.408093e-02 9.479700e-17 0 
    8.749836 2.401038e-02 9.408500e-17 0 
    8.770005 2.393840e-02 9.337200e-17 0 
    8.790220 2.386473e-02 9.265700e-17 0 
    8.810492 2.379743e-02 9.197100e-17 0 
    8.830801 2.373570e-02 9.131100e-17 0 
    8.851157 2.367264e-02 9.065000e-17 0 
    8.871559 2.360796e-02 8.998700e-17 0 
    8.892009 2.354192e-02 8.932300e-17 0 
    8.912505 2.347423e-02 8.865700e-17 0 
    8.933059 2.340494e-02 8.798900e-17 0 
    8.953651 2.333419e-02 8.732000e-17 0 
    8.974289 2.326175e-02 8.664900e-17 0 
    8.994976 2.320164e-02 8.602800e-17 0 
    9.015710 2.314101e-02 8.540900e-17 0 
    9.036491 2.307905e-02 8.478900e-17 0 
    9.057321 2.301548e-02 8.416700e-17 0 
    9.078209 2.295034e-02 8.354300e-17 0 
    9.099135 2.288406e-02 8.291900e-17 0 
    9.120109 2.281584e-02 8.229200e-17 0 
    9.141132 2.274651e-02 8.166500e-17 0 
    9.162202 2.268024e-02 8.105300e-17 0 
    9.183322 2.262215e-02 8.047400e-17 0 
    9.204501 2.256254e-02 7.989300e-17 0 
    9.225717 2.250155e-02 7.931100e-17 0 
    9.246984 2.243896e-02 7.872700e-17 0 
    9.268298 2.237529e-02 7.814300e-17 0 
    9.289662 2.231000e-02 7.755700e-17 0 
    9.311076 2.224305e-02 7.696900e-17 0 
    9.332538 2.217500e-02 7.638100e-17 0 
    9.354061 2.211553e-02 7.582600e-17 0 
    9.375623 2.205820e-02 7.528200e-17 0 
    9.397234 2.199959e-02 7.473700e-17 0 
    9.418895 2.193966e-02 7.419100e-17 0 
    9.440607 2.187842e-02 7.364400e-17 0 
    9.462368 2.181584e-02 7.309600e-17 0 
    9.484190 2.175168e-02 7.254600e-17 0 
    9.506052 2.168610e-02 7.199500e-17 0 
    9.527963 2.162096e-02 7.144900e-17 0 
    9.549927 2.156602e-02 7.094000e-17 0 
    9.571940 2.150980e-02 7.043000e-17 0 
    9.594004 2.145229e-02 6.991900e-17 0 
    9.616119 2.139349e-02 6.940700e-17 0 
    9.638295 2.133312e-02 6.889300e-17 0 
    9.660512 2.127137e-02 6.837800e-17 0 
    9.682780 2.120860e-02 6.786300e-17 0 
    9.705099 2.114416e-02 6.734600e-17 0 
    9.727470 2.108531e-02 6.685000e-17 0 
    9.749893 2.103148e-02 6.637300e-17 0 
    9.772367 2.097607e-02 6.589400e-17 0 
    9.794904 2.091975e-02 6.541500e-17 0 
    9.817482 2.086177e-02 6.493400e-17 0 
    9.840112 2.080248e-02 6.445200e-17 0 
    9.862794 2.074221e-02 6.397000e-17 0 
    9.885528 2.068028e-02 6.348600e-17 0 
    9.908315 2.061702e-02 6.300100e-17 0 
    9.931166 2.056428e-02 6.255100e-17 0 
    9.954058 2.051123e-02 6.210300e-17 0 
    9.977002 2.045692e-02 6.165400e-17 0 
   10.000000 2.040133e-02 6.120400e-17 0 
   10.023051 2.034447e-02 6.075300e-17 0 
   10.046155 2.028630e-02 6.030100e-17 0 
   10.069312 2.022684e-02 5.984800e-17 0 
   10.092534 2.016610e-02 5.939400e-17 0 
   10.115797 2.010840e-02 5.895200e-17 0 
   10.139115 2.005729e-02 5.853200e-17 0 
   10.162486 2.000527e-02 5.811200e-17 0 
   10.185912 1.995201e-02 5.769100e-17 0 
   10.209391 1.989748e-02 5.726900e-17 0 
   10.232935 1.984136e-02 5.684500e-17 0 
   10.256523 1.978426e-02 5.642100e-17 0 
   10.280165 1.972586e-02 5.599600e-17 0 
   10.303862 1.966614e-02 5.557000e-17 0 
   10.327612 1.961398e-02 5.516800e-17 0 
   10.351419 1.956415e-02 5.477500e-17 0 
   10.375279 1.951271e-02 5.438000e-17 0 
   10.399206 1.946042e-02 5.398500e-17 0 
   10.423177 1.940683e-02 5.358900e-17 0 
   10.447203 1.935197e-02 5.319200e-17 0 
   10.471285 1.929582e-02 5.279400e-17 0 
   10.495422 1.923838e-02 5.239500e-17 0 
   10.519615 1.918110e-02 5.199900e-17 0 
   10.543863 1.913325e-02 5.163100e-17 0 
   10.568179 1.908386e-02 5.126100e-17 0 
   10.592540 1.903356e-02 5.089100e-17 0 
   10.616956 1.898201e-02 5.052000e-17 0 
   10.641429 1.892958e-02 5.014900e-17 0 
   10.665959 1.887551e-02 4.977600e-17 0 
   10.690544 1.882014e-02 4.940200e-17 0 
   10.715198 1.876391e-02 4.902800e-17 0 
   10.739898 1.871249e-02 4.866900e-17 0 
   10.764654 1.866521e-02 4.832300e-17 0 
   10.789467 1.861670e-02 4.797600e-17 0 
   10.814338 1.856736e-02 4.762900e-17 0 
   10.839266 1.851676e-02 4.728100e-17 0 
   10.864251 1.846492e-02 4.693200e-17 0 
   10.889305 1.841184e-02 4.658200e-17 0 
   10.914406 1.835745e-02 4.623100e-17 0 
   10.939565 1.830216e-02 4.588000e-17 0 
   10.964781 1.825598e-02 4.555400e-17 0 
   10.990055 1.820979e-02 4.523000e-17 0 
   11.015388 1.816239e-02 4.490500e-17 0 
   11.040792 1.811339e-02 4.457800e-17 0 
   11.066241 1.806391e-02 4.425200e-17 0 
   11.091750 1.801278e-02 4.392400e-17 0 
   11.117317 1.796079e-02 4.359600e-17 0 
   11.142944 1.790752e-02 4.326700e-17 0 
   11.168629 1.785670e-02 4.294600e-17 0 
   11.194373 1.781213e-02 4.264200e-17 0 
   11.220190 1.776639e-02 4.233700e-17 0 
   11.246053 1.771981e-02 4.203200e-17 0 
   11.271976 1.767200e-02 4.172600e-17 0 
   11.297959 1.762294e-02 4.141900e-17 0 
   11.324001 1.757305e-02 4.111200e-17 0 
   11.350104 1.752147e-02 4.080300e-17 0 
   11.376279 1.746907e-02 4.049400e-17 0 
   11.402502 1.742359e-02 4.020300e-17 0 
   11.428786 1.737992e-02 3.991800e-17 0 
   11.455130 1.733504e-02 3.963200e-17 0 
   11.481534 1.728893e-02 3.934500e-17 0 
   11.508001 1.724203e-02 3.905800e-17 0 
   11.534527 1.719389e-02 3.877000e-17 0 
   11.561128 1.714453e-02 3.848100e-17 0 
   11.587777 1.709430e-02 3.819200e-17 0 
   11.614488 1.704415e-02 3.790500e-17 0 
   11.641260 1.700220e-02 3.763800e-17 0 
   11.668094 1.695905e-02 3.737000e-17 0 
   11.694990 1.691515e-02 3.710200e-17 0 
   11.721948 1.687001e-02 3.683300e-17 0 
   11.748980 1.682368e-02 3.656300e-17 0 
   11.776062 1.677652e-02 3.629300e-17 0 
   11.803207 1.672810e-02 3.602200e-17 0 
   11.830414 1.667841e-02 3.575000e-17 0 
   11.857684 1.663353e-02 3.549000e-17 0 
   11.885017 1.659212e-02 3.523900e-17 0 
   11.912426 1.654954e-02 3.498700e-17 0 
   11.939885 1.650617e-02 3.473500e-17 0 
   11.967407 1.646157e-02 3.448200e-17 0 
   11.994993 1.641621e-02 3.422900e-17 0 
   12.022642 1.636960e-02 3.397500e-17 0 
   12.050355 1.632221e-02 3.372100e-17 0 
   12.078132 1.627354e-02 3.346600e-17 0 
   12.105987 1.623340e-02 3.323000e-17 0 
   12.133891 1.619250e-02 3.299400e-17 0 
   12.161861 1.615088e-02 3.275800e-17 0 
   12.189895 1.610804e-02 3.252100e-17 0 
   12.217994 1.606445e-02 3.228400e-17 0 
   12.246157 1.601962e-02 3.204600e-17 0 
   12.274398 1.597407e-02 3.180800e-17 0 
   12.302692 1.592722e-02 3.156900e-17 0 
   12.331051 1.588263e-02 3.133600e-17 0 
   12.359474 1.584391e-02 3.111600e-17 0 
   12.387964 1.580348e-02 3.089400e-17 0 
   12.416520 1.576285e-02 3.067300e-17 0 
   12.445140 1.572099e-02 3.045100e-17 0 
   12.473841 1.567792e-02 3.022800e-17 0 
   12.502594 1.563357e-02 3.000400e-17 0 
   12.531413 1.558900e-02 2.978100e-17 0 
   12.560299 1.554263e-02 2.955600e-17 0 
   12.589252 1.550289e-02 2.934500e-17 0 
   12.618270 1.546458e-02 2.913800e-17 0 
   12.647370 1.542509e-02 2.893000e-17 0 
   12.676523 1.538487e-02 2.872200e-17 0 
   12.705744 1.534341e-02 2.851300e-17 0 
   12.735031 1.530124e-02 2.830400e-17 0 
   12.764387 1.525781e-02 2.809400e-17 0 
   12.793809 1.521366e-02 2.788400e-17 0 
   12.823300 1.516986e-02 2.767600e-17 0 
   12.852873 1.513309e-02 2.748200e-17 0 
   12.882499 1.509506e-02 2.728700e-17 0 
   12.912195 1.505636e-02 2.709200e-17 0 
   12.941958 1.501698e-02 2.689700e-17 0 
   12.971790 1.497635e-02 2.670100e-17 0 
   13.001691 1.493447e-02 2.650400e-17 0 
   13.031661 1.489245e-02 2.630800e-17 0 
   13.061714 1.484862e-02 2.611000e-17 0 
   13.091823 1.480917e-02 2.592100e-17 0 
   13.122000 1.477306e-02 2.573900e-17 0 
   13.152247 1.473573e-02 2.555600e-17 0 
   13.182564 1.469773e-02 2.537300e-17 0 
   13.212950 1.465849e-02 2.518900e-17 0 
   13.243422 1.461861e-02 2.500500e-17 0 
   13.273948 1.457801e-02 2.482100e-17 0 
   13.304547 1.453614e-02 2.463600e-17 0 
   13.335214 1.449298e-02 2.445000e-17 0 
   13.365953 1.445804e-02 2.427900e-17 0 
   13.396763 1.442187e-02 2.410700e-17 0 
   13.427642 1.438566e-02 2.393600e-17 0 
   13.458609 1.434824e-02 2.376400e-17 0 
   13.489633 1.430953e-02 2.359100e-17 0 
   13.520727 1.427015e-02 2.341800e-17 0 
   13.551894 1.423011e-02 2.324500e-17 0 
   13.583131 1.418878e-02 2.307100e-17 0 
   13.614441 1.414985e-02 2.290200e-17 0 
   13.645839 1.411588e-02 2.274200e-17 0 
   13.677294 1.408064e-02 2.258100e-17 0 
   13.708820 1.404477e-02 2.242000e-17 0 
   13.740420 1.400764e-02 2.225800e-17 0 
   13.772092 1.396987e-02 2.209600e-17 0 
   13.803839 1.393145e-02 2.193400e-17 0 
   13.835658 1.389174e-02 2.177100e-17 0 
   13.867564 1.385140e-02 2.160800e-17 0 
   13.899530 1.381616e-02 2.145400e-17 0 
   13.931570 1.378223e-02 2.130300e-17 0 
   13.963683 1.374770e-02 2.115200e-17 0 
   13.995870 1.371256e-02 2.100100e-17 0 
   14.028131 1.367614e-02 2.084900e-17 0 
   14.060467 1.363910e-02 2.069700e-17 0 
   14.092894 1.360079e-02 2.054400e-17 0 
   14.125378 1.356180e-02 2.039100e-17 0 
   14.157939 1.352351e-02 2.024000e-17 0 
   14.190573 1.349128e-02 2.009900e-17 0 
   14.223284 1.345779e-02 1.995700e-17 0 
   14.256070 1.342371e-02 1.981500e-17 0 
   14.288947 1.338905e-02 1.967300e-17 0 
   14.321883 1.335307e-02 1.953000e-17 0 
   14.354897 1.331648e-02 1.938700e-17 0 
   14.387986 1.327927e-02 1.924400e-17 0 
   14.421152 1.324073e-02 1.910000e-17 0 
   14.454392 1.320643e-02 1.896300e-17 0 
   14.487711 1.317433e-02 1.883000e-17 0 
   14.521122 1.314168e-02 1.869700e-17 0 
   14.554594 1.310842e-02 1.856400e-17 0 
   14.588144 1.307387e-02 1.843000e-17 0 
   14.621770 1.303872e-02 1.829600e-17 0 
   14.655475 1.300296e-02 1.816200e-17 0 
   14.689256 1.296587e-02 1.802700e-17 0 
   14.723133 1.292820e-02 1.789200e-17 0 
   14.757070 1.289713e-02 1.776700e-17 0 
   14.791086 1.286623e-02 1.764300e-17 0 
   14.825181 1.283404e-02 1.751800e-17 0 
   14.859355 1.280054e-02 1.739200e-17 0 
   14.893606 1.276719e-02 1.726700e-17 0 
   14.927938 1.273252e-02 1.714100e-17 0 
   14.962363 1.269729e-02 1.701500e-17 0 
   14.996853 1.266069e-02 1.688800e-17 0 
   15.031422 1.262648e-02 1.676500e-17 0 
   15.066070 1.259624e-02 1.664800e-17 0 
   15.100798 1.256544e-02 1.653100e-17 0 
   15.135606 1.253333e-02 1.641300e-17 0 
   15.170513 1.250145e-02 1.629600e-17 0 
   15.205481 1.246820e-02 1.617800e-17 0 
   15.240531 1.243439e-02 1.606000e-17 0 
   15.275661 1.239922e-02 1.594100e-17 0 
   15.310872 1.236346e-02 1.582200e-17 0 
   15.346166 1.233260e-02 1.571000e-17 0 
   15.381539 1.230277e-02 1.560000e-17 0 
   15.417011 1.227243e-02 1.549000e-17 0 
   15.452548 1.224152e-02 1.538000e-17 0 
   15.488169 1.220926e-02 1.526900e-17 0 
   15.523870 1.217645e-02 1.515800e-17 0 
   15.559653 1.214307e-02 1.504700e-17 0 
   15.595519 1.210912e-02 1.493600e-17 0 
   15.631469 1.207542e-02 1.482600e-17 0 
   15.667517 1.204690e-02 1.472300e-17 0 
   15.703631 1.201701e-02 1.461900e-17 0 
   15.739830 1.198742e-02 1.451600e-17 0 
   15.776111 1.195647e-02 1.441200e-17 0 
   15.812477 1.192497e-02 1.430800e-17 0 
   15.848925 1.189293e-02 1.420400e-17 0 
   15.885475 1.186037e-02 1.410000e-17 0 
   15.922092 1.182638e-02 1.399500e-17 0 
   15.958794 1.179607e-02 1.389500e-17 0 
   15.995580 1.176779e-02 1.379800e-17 0 
   16.032452 1.173899e-02 1.370100e-17 0 
   16.069406 1.170968e-02 1.360400e-17 0 
   16.106448 1.167898e-02 1.350600e-17 0 
   16.143592 1.164865e-02 1.340900e-17 0 
   16.180805 1.161688e-02 1.331100e-17 0 
   16.218103 1.158458e-02 1.321300e-17 0 
   16.255486 1.155085e-02 1.311400e-17 0 
   16.292956 1.152364e-02 1.302300e-17 0 
   16.330513 1.149593e-02 1.293200e-17 0 
   16.368173 1.146774e-02 1.284100e-17 0 
   16.405903 1.143903e-02 1.275000e-17 0 
   16.443720 1.140891e-02 1.265800e-17 0 
   16.481623 1.137826e-02 1.256600e-17 0 
   16.519616 1.134709e-02 1.247400e-17 0 
   16.557694 1.131538e-02 1.238200e-17 0 
   16.595861 1.128498e-02 1.229200e-17 0 
   16.634134 1.125870e-02 1.220700e-17 0 
   16.672477 1.123097e-02 1.212100e-17 0 
   16.710908 1.120369e-02 1.203600e-17 0 
   16.749428 1.117498e-02 1.195000e-17 0 
   16.788036 1.114576e-02 1.186400e-17 0 
   16.826734 1.111604e-02 1.177800e-17 0 
   16.865539 1.108488e-02 1.169100e-17 0 
   16.904416 1.105317e-02 1.160400e-17 0 
   16.943381 1.102667e-02 1.152300e-17 0 
   16.982437 1.100066e-02 1.144300e-17 0 
   17.021583 1.097320e-02 1.136200e-17 0 
   17.060819 1.094623e-02 1.128200e-17 0 
   17.100145 1.091780e-02 1.120100e-17 0 
   17.139581 1.088890e-02 1.112000e-17 0 
   17.179089 1.085947e-02 1.103900e-17 0 
   17.218688 1.082954e-02 1.095800e-17 0 
   17.258378 1.079911e-02 1.087700e-17 0 
   17.298161 1.077414e-02 1.080200e-17 0 
   17.338034 1.074872e-02 1.072700e-17 0 
   17.377998 1.072182e-02 1.065100e-17 0 
   17.418075 1.069447e-02 1.057500e-17 0 
   17.458225 1.066764e-02 1.050000e-17 0 
   17.498469 1.063930e-02 1.042400e-17 0 
   17.538803 1.060946e-02 1.034700e-17 0 
   17.579231 1.058014e-02 1.027100e-17 0 
   17.619753 1.055342e-02 1.019800e-17 0 
   17.660388 1.052834e-02 1.012700e-17 0 
   17.701095 1.050278e-02 1.005600e-17 0 
   17.741898 1.047697e-02 9.985200e-18 0 
   17.782794 1.045038e-02 9.914100e-18 0 
   17.823784 1.042311e-02 9.842800e-18 0 
   17.864870 1.039515e-02 9.771300e-18 0 
   17.906050 1.036661e-02 9.699700e-18 0 
   17.947344 1.033738e-02 9.627900e-18 0 
   17.988714 1.031315e-02 9.561200e-18 0 
   18.030180 1.028880e-02 9.494800e-18 0 
   18.071741 1.026378e-02 9.428200e-18 0 
   18.113397 1.023821e-02 9.361500e-18 0 
   18.155150 1.021196e-02 9.294600e-18 0 
   18.197019 1.018516e-02 9.227600e-18 0 
   18.238964 1.015766e-02 9.160400e-18 0 
   18.281006 1.012946e-02 9.093000e-18 0 
   18.323145 1.010268e-02 9.027300e-18 0 
   18.365381 1.007927e-02 8.965000e-18 0 
   18.407714 1.005531e-02 8.902600e-18 0 
   18.450145 1.003068e-02 8.840000e-18 0 
   18.492695 1.000542e-02 8.777200e-18 0 
   18.535322 9.979563e-03 8.714300e-18 0 
   18.578047 9.953143e-03 8.651300e-18 0 
   18.620870 9.926035e-03 8.588100e-18 0 
   18.663794 9.898350e-03 8.524800e-18 0 
   18.706814 9.874395e-03 8.465100e-18 0 
   18.749934 9.851298e-03 8.406500e-18 0 
   18.793175 9.827564e-03 8.347700e-18 0 
   18.836495 9.803380e-03 8.288900e-18 0 
   18.879914 9.778525e-03 8.229900e-18 0 
   18.923434 9.753113e-03 8.170800e-18 0 
   18.967053 9.727016e-03 8.111500e-18 0 
   19.010775 9.700473e-03 8.052200e-18 0 
   19.054616 9.673861e-03 7.993200e-18 0 
   19.098539 9.651761e-03 7.938300e-18 0 
   19.142563 9.629006e-03 7.883200e-18 0 
   19.186688 9.605711e-03 7.828000e-18 0 
   19.230914 9.581875e-03 7.772700e-18 0 
   19.275242 9.557365e-03 7.717200e-18 0 
   19.319673 9.532302e-03 7.661600e-18 0 
   19.364228 9.506699e-03 7.605900e-18 0 
   19.408864 9.480384e-03 7.550000e-18 0 
   19.453603 9.456526e-03 7.496400e-18 0 
   19.498444 9.434651e-03 7.444700e-18 0 
   19.543389 9.412375e-03 7.393000e-18 0 
   19.588439 9.389308e-03 7.341000e-18 0 
   19.633613 9.365848e-03 7.289000e-18 0 
   19.678870 9.341693e-03 7.236800e-18 0 
   19.724231 9.317116e-03 7.184600e-18 0 
   19.769697 9.291852e-03 7.132200e-18 0 
   19.815267 9.266024e-03 7.079700e-18 0 
   19.860942 9.244626e-03 7.030900e-18 0 
   19.906723 9.223098e-03 6.982300e-18 0 
   19.952631 9.201060e-03 6.933600e-18 0 
   19.998623 9.178470e-03 6.884800e-18 0 
   20.044722 9.155206e-03 6.835800e-18 0 
   20.090927 9.131534e-03 6.786800e-18 0 
   20.137238 9.107311e-03 6.737700e-18 0 
   20.183656 9.082401e-03 6.688400e-18 0 
   20.230203 9.058722e-03 6.640300e-18 0 
   20.276834 9.038037e-03 6.594700e-18 0 
   20.323573 9.016830e-03 6.549000e-18 0 
   20.370422 8.995098e-03 6.503200e-18 0 
   20.417377 8.972833e-03 6.457300e-18 0 
   20.464441 8.950032e-03 6.411300e-18 0 
   20.511613 8.926548e-03 6.365100e-18 0 
   20.558916 8.902677e-03 6.318900e-18 0 
   20.606305 8.878234e-03 6.272600e-18 0 
   20.653805 8.856931e-03 6.228800e-18 0 
   20.701412 8.836526e-03 6.185900e-18 0 
   20.749131 8.815603e-03 6.142900e-18 0 
   20.796959 8.794297e-03 6.099900e-18 0 
   20.844898 8.772318e-03 6.056700e-18 0 
   20.892970 8.749822e-03 6.013400e-18 0 
   20.941130 8.726765e-03 5.970000e-18 0 
   20.989400 8.703163e-03 5.926500e-18 0 
   21.037783 8.679747e-03 5.883400e-18 0 
   21.086275 8.660226e-03 5.843200e-18 0 
   21.134881 8.640044e-03 5.802800e-18 0 
   21.183622 8.619510e-03 5.762400e-18 0 
   21.232452 8.598433e-03 5.721900e-18 0 
   21.281394 8.576826e-03 5.681300e-18 0 
   21.330448 8.554533e-03 5.640500e-18 0 
   21.379617 8.531853e-03 5.599700e-18 0 
   21.428898 8.508780e-03 5.558900e-18 0 
   21.478294 8.487619e-03 5.519600e-18 0 
   21.527827 8.468264e-03 5.481700e-18 0 
   21.577450 8.448530e-03 5.443800e-18 0 
   21.627188 8.428277e-03 5.405800e-18 0 
   21.677039 8.407343e-03 5.367600e-18 0 
   21.727006 8.386038e-03 5.329400e-18 0 
   21.777089 8.364358e-03 5.291200e-18 0 
   21.827311 8.341998e-03 5.252800e-18 0 
   21.877623 8.319075e-03 5.214300e-18 0 
   21.928053 8.300251e-03 5.178600e-18 0 
   21.978598 8.281237e-03 5.143000e-18 0 
   22.029261 8.261710e-03 5.107300e-18 0 
   22.080041 8.241665e-03 5.071500e-18 0 
   22.130936 8.221093e-03 5.035600e-18 0 
   22.181973 8.200174e-03 4.999700e-18 0 
   22.233105 8.178704e-03 4.963700e-18 0 
   22.284355 8.156697e-03 4.927600e-18 0 
   22.335720 8.135641e-03 4.892300e-18 0 
   22.387206 8.117392e-03 4.858900e-18 0 
   22.438811 8.098633e-03 4.825400e-18 0 
   22.490558 8.079377e-03 4.791800e-18 0 
   22.542400 8.059753e-03 4.758200e-18 0 
   22.594363 8.039436e-03 4.724400e-18 0 
   22.646444 8.018759e-03 4.690600e-18 0 
   22.698645 7.997721e-03 4.656800e-18 0 
   22.750967 7.975971e-03 4.622800e-18 0 
   22.803411 7.957146e-03 4.590700e-18 0 
   22.855998 7.939210e-03 4.559300e-18 0 
   22.908683 7.920573e-03 4.527700e-18 0 
   22.961489 7.901772e-03 4.496200e-18 0 
   23.014417 7.882275e-03 4.464500e-18 0 
   23.067467 7.862428e-03 4.432800e-18 0 
   23.120639 7.842053e-03 4.401000e-18 0 
   23.173934 7.821145e-03 4.369100e-18 0 
   23.227378 7.800252e-03 4.337400e-18 0 
   23.280919 7.782956e-03 4.307900e-18 0 
   23.334583 7.765335e-03 4.278400e-18 0 
   23.388370 7.747021e-03 4.248700e-18 0 
   23.442281 7.728372e-03 4.219000e-18 0 
   23.496319 7.709203e-03 4.189200e-18 0 
   23.550505 7.689523e-03 4.159300e-18 0 
   23.604791 7.669482e-03 4.129400e-18 0 
   23.659202 7.648904e-03 4.099400e-18 0 
   23.713738 7.630222e-03 4.070600e-18 0 
   23.768398 7.613088e-03 4.042800e-18 0 
   23.823187 7.595634e-03 4.015000e-18 0 
   23.878102 7.577666e-03 3.987100e-18 0 
   23.933167 7.559195e-03 3.959100e-18 0 
   23.988336 7.540378e-03 3.931100e-18 0 
   24.043630 7.521030e-03 3.903000e-18 0 
   24.099053 7.501153e-03 3.874800e-18 0 
   24.154603 7.480930e-03 3.846600e-18 0 
   24.210281 7.464268e-03 3.820400e-18 0 
   24.266114 7.447506e-03 3.794300e-18 0 
   24.322048 7.430217e-03 3.768100e-18 0 
   24.378113 7.412410e-03 3.741800e-18 0 
   24.434306 7.394283e-03 3.715500e-18 0 
   24.490630 7.375629e-03 3.689100e-18 0 
   24.547081 7.356645e-03 3.662700e-18 0 
   24.603664 7.337128e-03 3.636200e-18 0 
   24.660405 7.318506e-03 3.610300e-18 0 
   24.717248 7.302390e-03 3.585800e-18 0 
   24.774223 7.285766e-03 3.561200e-18 0 
   24.831330 7.268626e-03 3.536500e-18 0 
   24.888567 7.251173e-03 3.511800e-18 0 
   24.945937 7.233405e-03 3.487100e-18 0 
   25.003441 7.215110e-03 3.462300e-18 0 
   25.061102 7.196298e-03 3.437400e-18 0 
   25.118870 7.176933e-03 3.412400e-18 0 
   25.176770 7.160404e-03 3.388900e-18 0 
   25.763198 6.990314e-03 3.159500e-18 0 
   26.363316 6.823981e-03 2.945500e-18 0 
   26.977409 6.661376e-03 2.745900e-18 0 
   27.605778 6.502312e-03 2.559700e-18 0 
   28.248812 6.346724e-03 2.386000e-18 0 
   28.906797 6.196552e-03 2.224700e-18 0 
   29.580138 6.052559e-03 2.075200e-18 0 
   30.269131 5.911759e-03 1.935700e-18 0 
   30.974206 5.773997e-03 1.805500e-18 0 
   31.695669 5.639242e-03 1.684000e-18 0 
   32.433972 5.507375e-03 1.570600e-18 0 
   33.189438 5.379181e-03 1.465000e-18 0 
   33.962538 5.257058e-03 1.367300e-18 0 
   34.753606 1.380047e-02 3.427800e-18 0 
