# NGC 4676 A     
# 
# An Atlas of Galaxy Spectral Energy Distributions from the Ultraviolet to the Mid-Infrared
# Brown et al. (2014)
# http://dx.doi.org/10.5072/03/529D3551F0117
# http://dx.doi.org/10.17909/t9-5bxk-dh29
# 
# The Spectral Energy Distributions of Active Galactic Nuclei
# Brown et al. (2019)
# http://dx.doi.org/10.17909/t9-3dbt-8734
# 
# Column 1: Observed wavelength (um)
# Column 2: f_nu (Jy)
# Column 3: f_lam (erg/s/cm2/A)
# Column 4: Source (0 = model, 1 = Optical Spectrun, 2 = Akari, 3 = Spitzer IRS)
# 
    0.010423 1.223781e-13 3.379400e-22 0 
    0.010641 1.677591e-13 4.444700e-22 0 
    0.010839 2.321130e-13 5.927100e-22 0 
    0.011041 3.278965e-13 8.069400e-22 0 
    0.011246 5.149118e-13 1.221400e-21 0 
    0.011641 8.947465e-13 1.980800e-21 0 
    0.012050 1.461124e-12 3.018800e-21 0 
    0.012359 6.105213e-12 1.199100e-20 0 
    0.012764 9.071912e-12 1.670500e-20 0 
    0.012972 1.070888e-11 1.909200e-20 0 
    0.013092 1.185063e-11 2.074200e-20 0 
    0.013397 1.485014e-11 2.482200e-20 0 
    0.013490 1.827019e-11 3.011900e-20 0 
    0.013709 2.107334e-11 3.363900e-20 0 
    0.013996 2.983505e-11 4.569200e-20 0 
    0.014322 3.653660e-11 5.343700e-20 0 
    0.014622 1.166081e-10 1.636200e-19 0 
    0.015031 3.505093e-10 4.654200e-19 0 
    0.015417 4.253194e-10 5.368300e-19 0 
    0.015849 5.232640e-10 6.249400e-19 0 
    0.016255 6.407545e-10 7.275100e-19 0 
    0.016558 7.374554e-10 8.069400e-19 0 
    0.016982 9.050972e-10 9.415400e-19 0 
    0.017378 1.073290e-09 1.066200e-18 0 
    0.017701 1.229489e-09 1.177200e-18 0 
    0.018072 1.441273e-09 1.323900e-18 0 
    0.018408 1.628309e-09 1.441600e-18 0 
    0.018621 1.768960e-09 1.530500e-18 0 
    0.019011 2.054662e-09 1.705500e-18 0 
    0.019543 2.475663e-09 1.944600e-18 0 
    0.019815 2.771474e-09 2.117600e-18 0 
    0.020230 3.174711e-09 2.327200e-18 0 
    0.020654 3.653724e-09 2.569500e-18 0 
    0.020941 4.024495e-09 2.753200e-18 0 
    0.021478 4.515555e-09 2.936600e-18 0 
    0.022080 5.671720e-09 3.490100e-18 0 
    0.022491 6.408214e-09 3.800500e-18 0 
    0.022803 6.913612e-09 3.988800e-18 0 
    0.023174 7.775362e-09 4.343500e-18 0 
    0.023496 1.258076e-08 6.836600e-18 0 
    0.023933 2.310629e-08 1.210200e-17 0 
    0.024547 3.124048e-08 1.555400e-17 0 
    0.025119 3.248835e-08 1.544700e-17 0 
    0.025763 3.773318e-08 1.705500e-17 0 
    0.026242 3.441147e-08 1.499100e-17 0 
    0.026546 4.108813e-08 1.749200e-17 0 
    0.026977 4.557224e-08 1.878600e-17 0 
    0.027479 4.872128e-08 1.935700e-17 0 
    0.027990 5.184807e-08 1.985400e-17 0 
    0.028510 5.517152e-08 2.036300e-17 0 
    0.029040 5.870924e-08 2.088500e-17 0 
    0.029648 6.007699e-08 2.050400e-17 0 
    0.030269 6.557027e-08 2.147000e-17 0 
    0.030761 6.881996e-08 2.181900e-17 0 
    0.031477 7.493762e-08 2.269000e-17 0 
    0.032509 8.447635e-08 2.398000e-17 0 
    0.033497 9.283833e-08 2.482200e-17 0 
    0.034514 1.008563e-07 2.540000e-17 0 
    0.035563 1.090743e-07 2.587300e-17 0 
    0.036475 1.166029e-07 2.629300e-17 0 
    0.037411 1.249454e-07 2.678200e-17 0 
    0.038371 1.326572e-07 2.703000e-17 0 
    0.039355 1.369979e-07 2.653600e-17 0 
    0.040365 1.495293e-07 2.753200e-17 0 
    0.041400 1.594840e-07 2.791500e-17 0 
    0.042267 1.662338e-07 2.791500e-17 0 
    0.043152 1.728707e-07 2.785100e-17 0 
    0.043954 1.789440e-07 2.778700e-17 0 
    0.045082 1.891136e-07 2.791500e-17 0 
    0.046132 1.966634e-07 2.772300e-17 0 
    0.046989 2.031035e-07 2.759600e-17 0 
    0.048084 2.117009e-07 2.746900e-17 0 
    0.049091 2.206609e-07 2.746900e-17 0 
    0.050119 2.257960e-07 2.696700e-17 0 
    0.051050 2.353484e-07 2.709200e-17 0 
    0.051761 2.391812e-07 2.678200e-17 0 
    0.052360 2.521878e-07 2.759600e-17 0 
    0.053088 2.580562e-07 2.746900e-17 0 
    0.054200 2.652885e-07 2.709200e-17 0 
    0.055208 2.683595e-07 2.641400e-17 0 
    0.056234 2.777943e-07 2.635400e-17 0 
    0.057280 2.915604e-07 2.665900e-17 0 
    0.058210 3.045836e-07 2.696700e-17 0 
    0.059293 3.088390e-07 2.635400e-17 0 
    0.060256 3.226437e-07 2.665900e-17 0 
    0.061376 3.263740e-07 2.599200e-17 0 
    0.062373 3.074057e-07 2.370500e-17 0 
    0.063387 3.553977e-07 2.653600e-17 0 
    0.064417 3.636804e-07 2.629300e-17 0 
    0.065464 3.747415e-07 2.623300e-17 0 
    0.066374 3.861134e-07 2.629300e-17 0 
    0.067298 3.951118e-07 2.617200e-17 0 
    0.067920 4.071084e-07 2.647500e-17 0 
    0.069024 4.175602e-07 2.629300e-17 0 
    0.069984 4.156403e-07 2.545900e-17 0 
    0.070958 4.536569e-07 2.703000e-17 0 
    0.072111 4.494877e-07 2.593200e-17 0 
    0.073114 4.872210e-07 2.734300e-17 0 
    0.074131 5.008695e-07 2.734300e-17 0 
    0.075162 5.172711e-07 2.746900e-17 0 
    0.076208 5.453973e-07 2.817300e-17 0 
    0.077090 5.645725e-07 2.850000e-17 0 
    0.078163 5.581190e-07 2.740600e-17 0 
    0.079250 6.176095e-07 2.950100e-17 0 
    0.080168 6.393274e-07 2.984300e-17 0 
    0.081283 6.679163e-07 3.032800e-17 0 
    0.082224 6.945806e-07 3.082100e-17 0 
    0.083368 7.206455e-07 3.110600e-17 0 
    0.084333 7.668455e-07 3.234700e-17 0 
    0.085310 6.850346e-07 2.823800e-17 0 
    0.086298 8.104448e-07 3.264700e-17 0 
    0.087297 8.331275e-07 3.279700e-17 0 
    0.088308 8.845356e-07 3.402800e-17 0 
    0.089331 9.412974e-07 3.538700e-17 0 
    0.090365 1.010930e-06 3.714000e-17 0 
    0.091411 1.065888e-06 3.826800e-17 0 
    0.092470 1.073313e-06 3.765700e-17 0 
    0.093541 1.609635e-06 5.518800e-17 0 
    0.094624 9.676563e-06 3.242200e-16 0 
    0.095499 2.121873e-05 6.979800e-16 0 
    0.096605 4.156396e-05 1.336100e-15 0 
    0.097499 6.190343e-05 1.953600e-15 0 
    0.098628 6.679214e-05 2.059900e-15 0 
    0.099541 1.013267e-05 3.067900e-16 0 
    0.100693 5.148963e-05 1.523500e-15 0 
    0.101625 6.091587e-05 1.769500e-15 0 
    0.102802 1.008599e-04 2.863100e-15 0 
    0.103753 1.022645e-04 2.850000e-15 0 
    0.104713 4.620937e-05 1.264300e-15 0 
    0.105682 6.866135e-05 1.844300e-15 0 
    0.106905 1.488395e-04 3.907000e-15 0 
    0.107895 1.491836e-04 3.844500e-15 0 
    0.108893 1.121302e-04 2.836900e-15 0 
    0.109901 1.421406e-04 3.530500e-15 0 
    0.110918 1.073297e-04 2.617200e-15 0 
    0.111944 1.580217e-04 3.783000e-15 0 
    0.112980 1.544247e-04 3.629400e-15 0 
    0.114025 1.478163e-04 3.410700e-15 0 
    0.115080 1.329594e-04 3.011900e-15 0 
    0.115878 1.839597e-04 4.110000e-15 0 
    0.116950 1.677703e-04 3.679900e-15 0 
    0.118032 1.860884e-04 4.007200e-15 0 
    0.119124 1.953090e-04 4.129000e-15 0 
    0.120226 1.287396e-04 2.672000e-15 0 
    0.121060 1.962081e-04 4.016400e-15 0 
    0.122180 1.243698e-04 2.499400e-15 0 
    0.123027 8.350839e-05 1.655200e-15 0 
    0.124165 6.648301e-05 1.293700e-15 0 
    0.125314 1.421385e-04 2.715400e-15 0 
    0.126183 2.331958e-04 4.393800e-15 0 
    0.127350 2.628563e-04 4.862300e-15 0 
    0.128233 2.492975e-04 4.548200e-15 0 
    0.129420 2.112116e-04 3.783000e-15 0 
    0.130317 2.949298e-04 5.210000e-15 0 
    0.131220 3.174839e-04 5.531500e-15 0 
    0.132434 2.369838e-04 4.053600e-15 0 
    0.133352 2.358942e-04 3.979600e-15 0 
    0.134277 3.211620e-04 5.343700e-15 0 
    0.135519 3.102528e-04 5.068000e-15 0 
    0.136458 2.665131e-04 4.293800e-15 0 
    0.137404 3.433365e-04 5.455600e-15 0 
    0.138357 3.362982e-04 5.270400e-15 0 
    0.139637 2.962926e-04 4.558700e-15 0 
    0.140605 3.218979e-04 4.884700e-15 0 
    0.141579 3.301548e-04 4.941300e-15 0 
    0.142561 2.882163e-04 4.254400e-15 0 
    0.143549 3.045957e-04 4.434500e-15 0 
    0.144544 3.124056e-04 4.485800e-15 0 
    0.145546 3.316793e-04 4.697200e-15 0 
    0.146555 3.324422e-04 4.643400e-15 0 
    0.147231 3.586888e-04 4.964100e-15 0 
    0.147911 3.704399e-04 5.079700e-15 0 
    0.148594 3.603485e-04 4.896000e-15 0 
    0.149624 3.301610e-04 4.424300e-15 0 
    0.150661 3.355251e-04 4.434500e-15 0 
    0.151705 3.513303e-04 4.579700e-15 0 
    0.152757 3.653592e-04 4.697200e-15 0 
    0.153815 3.457140e-04 4.383700e-15 0 
    0.154525 3.018017e-04 3.791800e-15 0 
    0.154882 3.316801e-04 4.148000e-15 0 
    0.155955 3.219012e-04 3.970500e-15 0 
    0.157036 2.752419e-04 3.348400e-15 0 
    0.157761 3.182165e-04 3.835700e-15 0 
    0.158855 3.024993e-04 3.596200e-15 0 
    0.159956 3.102549e-04 3.637800e-15 0 
    0.161065 3.378505e-04 3.907000e-15 0 
    0.162181 3.662034e-04 4.176800e-15 0 
    0.162930 3.773275e-04 4.264200e-15 0 
    0.164059 3.764651e-04 4.196100e-15 0 
    0.165196 3.843393e-04 4.225100e-15 0 
    0.165959 3.620080e-04 3.943100e-15 0 
    0.167109 3.960196e-04 4.254400e-15 0 
    0.168267 4.089926e-04 4.333500e-15 0 
    0.169044 3.755917e-04 3.943100e-15 0 
    0.170216 4.223948e-04 4.373600e-15 0 
    0.171002 3.678896e-04 3.774300e-15 0 
    0.171396 4.302495e-04 4.393800e-15 0 
    0.172187 4.610222e-04 4.664900e-15 0 
    0.173380 4.342258e-04 4.333500e-15 0 
    0.174181 4.175661e-04 4.129000e-15 0 
    0.175388 3.960267e-04 3.862300e-15 0 
    0.176198 3.978511e-04 3.844500e-15 0 
    0.177419 4.362362e-04 4.157600e-15 0 
    0.178238 4.292598e-04 4.053600e-15 0 
    0.179473 4.717558e-04 4.393800e-15 0 
    0.180302 4.282711e-04 3.952200e-15 0 
    0.181552 4.474254e-04 4.072300e-15 0 
    0.182390 4.610239e-04 4.157600e-15 0 
    0.183654 5.090012e-04 4.527300e-15 0 
    0.184502 5.090036e-04 4.485800e-15 0 
    0.185353 4.652797e-04 4.062900e-15 0 
    0.186638 4.849786e-04 4.176800e-15 0 
    0.187499 4.663544e-04 3.979600e-15 0 
    0.188365 4.263087e-04 3.604500e-15 0 
    0.189671 4.332360e-04 3.612800e-15 0 
    0.190546 4.546944e-04 3.757000e-15 0 
    0.191426 5.066632e-04 4.148000e-15 0 
    0.192753 4.674309e-04 3.774300e-15 0 
    0.193642 4.526040e-04 3.621100e-15 0 
    0.194536 4.872195e-04 3.862300e-15 0 
    0.195884 4.717530e-04 3.688400e-15 0 
    0.196789 4.685060e-04 3.629400e-15 0 
    0.197697 4.860890e-04 3.731100e-15 0 
    0.198610 5.160843e-04 3.925000e-15 0 
    0.199986 4.883316e-04 3.663000e-15 0 
    0.200909 5.491849e-04 4.081700e-15 0 
    0.201837 5.698049e-04 4.196100e-15 0 
    0.202768 5.416472e-04 3.952200e-15 0 
    0.203704 5.293143e-04 3.826800e-15 0 
    0.205116 5.555402e-04 3.961300e-15 0 
    0.206063 5.354452e-04 3.783000e-15 0 
    0.207014 5.697974e-04 3.988800e-15 0 
    0.207970 5.429075e-04 3.765700e-15 0 
    0.208930 5.763922e-04 3.961300e-15 0 
    0.209894 5.517215e-04 3.757000e-15 0 
    0.210863 5.568275e-04 3.757000e-15 0 
    0.211836 6.091414e-04 4.072300e-15 0 
    0.212324 5.898160e-04 3.925000e-15 0 
    0.213304 6.262124e-04 4.129000e-15 0 
    0.214289 5.925487e-04 3.871200e-15 0 
    0.215278 5.994058e-04 3.880100e-15 0 
    0.216272 6.133731e-04 3.934100e-15 0 
    0.217270 6.262067e-04 3.979600e-15 0 
    0.218273 5.790542e-04 3.646200e-15 0 
    0.219281 6.105566e-04 3.809300e-15 0 
    0.220293 6.422814e-04 3.970500e-15 0 
    0.221309 6.233226e-04 3.818000e-15 0 
    0.222331 6.233259e-04 3.783000e-15 0 
    0.223357 6.233383e-04 3.748400e-15 0 
    0.224388 6.602727e-04 3.934100e-15 0 
    0.225424 6.452443e-04 3.809300e-15 0 
    0.226464 6.091402e-04 3.563200e-15 0 
    0.227510 5.966468e-04 3.458100e-15 0 
    0.228560 6.587423e-04 3.783000e-15 0 
    0.229615 6.320087e-04 3.596200e-15 0 
    0.230675 5.977896e-04 3.370300e-15 0 
    0.231739 6.169754e-04 3.446600e-15 0 
    0.232274 6.428827e-04 3.574800e-15 0 
    0.233346 6.789778e-04 3.740900e-15 0 
    0.234423 6.376329e-04 3.480900e-15 0 
    0.235505 6.505764e-04 3.519000e-15 0 
    0.236592 6.137743e-04 3.289500e-15 0 
    0.237684 4.663742e-04 2.476600e-15 0 
    0.238781 5.629226e-04 2.961900e-15 0 
    0.239883 5.409506e-04 2.820200e-15 0 
    0.240436 6.109691e-04 3.170600e-15 0 
    0.241546 5.454041e-04 2.804400e-15 0 
    0.242661 5.760069e-04 2.934600e-15 0 
    0.243781 5.249775e-04 2.650100e-15 0 
    0.244906 5.739186e-04 2.870600e-15 0 
    0.246037 5.527782e-04 2.739500e-15 0 
    0.246604 5.773029e-04 2.847900e-15 0 
    0.247742 6.413598e-04 3.134900e-15 0 
    0.248886 6.220235e-04 3.012500e-15 0 
    0.250035 6.753141e-04 3.240600e-15 0 
    0.251189 6.748528e-04 3.208700e-15 0 
    0.251768 6.623109e-04 3.134600e-15 0 
    0.252930 6.379019e-04 2.991400e-15 0 
    0.254097 6.418650e-04 2.982400e-15 0 
    0.255270 6.153755e-04 2.833100e-15 0 
    0.255859 7.144723e-04 3.274200e-15 0 
    0.257040 6.035013e-04 2.740300e-15 0 
    0.257632 6.187629e-04 2.796700e-15 0 
    0.258226 5.947915e-04 2.676000e-15 0 
    0.258821 6.240184e-04 2.794600e-15 0 
    0.260016 6.207119e-04 2.754300e-15 0 
    0.261216 7.154313e-04 3.145500e-15 0 
    0.262422 6.764868e-04 2.947000e-15 0 
    0.263027 7.380695e-04 3.200500e-15 0 
    0.264241 7.240676e-04 3.111000e-15 0 
    0.265461 7.103331e-04 3.024000e-15 0 
    0.266072 6.796489e-04 2.880100e-15 0 
    0.267301 6.698421e-04 2.812500e-15 0 
    0.268534 7.305276e-04 3.039200e-15 0 
    0.269154 8.155974e-04 3.377500e-15 0 
    0.270396 9.400510e-04 3.857200e-15 0 
    0.271644 1.039486e-03 4.226100e-15 0 
    0.272270 8.543839e-04 3.457600e-15 0 
    0.273527 9.275067e-04 3.719100e-15 0 
    0.274157 9.553349e-04 3.813100e-15 0 
    0.275423 8.746154e-04 3.458900e-15 0 
    0.276694 9.472715e-04 3.711900e-15 0 
    0.277332 8.497866e-04 3.314600e-15 0 
    0.278612 8.259781e-04 3.192200e-15 0 
    0.279254 8.990897e-04 3.458800e-15 0 
    0.280543 7.218503e-04 2.751500e-15 0 
    0.281838 7.746537e-04 2.925700e-15 0 
    0.282488 8.412725e-04 3.162700e-15 0 
    0.283792 8.965747e-04 3.339700e-15 0 
    0.284446 7.914299e-04 2.934500e-15 0 
    0.285759 5.998884e-04 2.203900e-15 0 
    0.286418 6.559814e-04 2.398900e-15 0 
    0.287740 8.943992e-04 3.240800e-15 0 
    0.288403 1.021765e-03 3.685300e-15 0 
    0.289734 9.954013e-04 3.557300e-15 0 
    0.291072 9.324886e-04 3.301900e-15 0 
    0.291743 8.288115e-04 2.921300e-15 0 
    0.293089 1.069298e-03 3.734400e-15 0 
    0.293765 1.153227e-03 4.009000e-15 0 
    0.295121 1.113150e-03 3.834200e-15 0 
    0.295801 1.162443e-03 3.985600e-15 0 
    0.297167 1.370897e-03 4.657200e-15 0 
    0.299227 1.292553e-03 4.330800e-15 0 
    0.301301 1.270256e-03 4.197700e-15 0 
    0.303389 1.340664e-03 4.369600e-15 0 
    0.305492 1.366968e-03 4.394200e-15 0 
    0.307610 1.413114e-03 4.480200e-15 0 
    0.309742 1.450774e-03 4.536500e-15 0 
    0.311889 1.486001e-03 4.582900e-15 0 
    0.314051 1.546783e-03 4.704900e-15 0 
    0.315501 1.574106e-03 4.744100e-15 0 
    0.317687 1.653623e-03 4.915400e-15 0 
    0.319890 1.628712e-03 4.774900e-15 0 
    0.322107 1.645245e-03 4.757200e-15 0 
    0.324340 1.720382e-03 4.906200e-15 0 
    0.325837 1.582035e-03 4.470300e-15 0 
    0.328095 1.724207e-03 4.805200e-15 0 
    0.330370 1.566658e-03 4.306200e-15 0 
    0.331894 1.864424e-03 5.077700e-15 0 
    0.334195 2.055475e-03 5.521200e-15 0 
    0.336512 2.043044e-03 5.412500e-15 0 
    0.338065 2.031659e-03 5.333000e-15 0 
    0.339625 2.034304e-03 5.291000e-15 0 
    0.340408 2.178731e-03 5.640600e-15 0 
    0.341193 1.995197e-03 5.141700e-15 0 
    0.341979 2.176511e-03 5.583200e-15 0 
    0.342768 2.011623e-03 5.136500e-15 0 
    0.343558 2.062178e-03 5.241400e-15 0 
    0.344350 2.089839e-03 5.287300e-15 0 
    0.345144 2.013202e-03 5.070000e-15 0 
    0.345939 1.970907e-03 4.940700e-15 0 
    0.346737 2.246193e-03 5.604900e-15 0 
    0.347536 2.383538e-03 5.920300e-15 0 
    0.348337 2.177706e-03 5.384200e-15 0 
    0.349140 2.127052e-03 5.234800e-15 0 
    0.349945 2.385346e-03 5.843500e-15 0 
    0.350752 2.389635e-03 5.827100e-15 0 
    0.351560 2.377421e-03 5.770700e-15 0 
    0.352371 1.971869e-03 4.764300e-15 0 
    0.353183 2.236931e-03 5.379900e-15 0 
    0.353997 2.015674e-03 4.825500e-15 0 
    0.354813 2.318432e-03 5.524800e-15 0 
    0.355631 1.999713e-03 4.743400e-15 0 
    0.356451 2.191485e-03 5.174400e-15 0 
    0.357273 2.160290e-03 5.077300e-15 0 
    0.358096 2.461941e-03 5.759700e-15 0 
    0.358922 2.399108e-03 5.586900e-15 0 
    0.359749 2.414447e-03 5.596800e-15 0 
    0.360579 2.121231e-03 4.894500e-15 0 
    0.361410 2.456692e-03 5.642500e-15 0 
    0.362243 2.606860e-03 5.959900e-15 0 
    0.363078 2.672281e-03 6.081400e-15 0 
    0.363915 2.598048e-03 5.885300e-15 0 
    0.364754 2.282528e-03 5.146800e-15 0 
    0.365595 2.249983e-03 5.050100e-15 0 
    0.366437 1.990374e-03 4.446900e-15 0 
    0.367282 2.310455e-03 5.138300e-15 0 
    0.367820 3.263367e-03 7.236300e-15 1 
    0.368095 2.388532e-03 5.288500e-15 1 
    0.368370 3.060633e-03 6.766500e-15 1 
    0.368645 2.622536e-03 5.789300e-15 1 
    0.368920 2.162524e-03 4.766700e-15 1 
    0.369195 3.012657e-03 6.630700e-15 1 
    0.369470 2.312765e-03 5.082700e-15 1 
    0.369745 2.523646e-03 5.537900e-15 1 
    0.370020 2.498056e-03 5.473600e-15 1 
    0.370295 2.679247e-03 5.861900e-15 1 
    0.370570 1.997304e-03 4.363400e-15 1 
    0.370845 3.363244e-03 7.336600e-15 1 
    0.371120 4.345750e-03 9.465800e-15 1 
    0.371395 3.241455e-03 7.050000e-15 1 
    0.371670 1.885223e-03 4.094200e-15 1 
    0.371945 2.803707e-03 6.079900e-15 1 
    0.372220 3.356411e-03 7.267700e-15 1 
    0.372495 2.980080e-03 6.443300e-15 1 
    0.372770 3.487184e-03 7.528600e-15 1 
    0.373045 3.381604e-03 7.289900e-15 1 
    0.373320 3.857051e-03 8.302600e-15 1 
    0.373595 4.276989e-03 9.193000e-15 1 
    0.373870 2.758860e-03 5.921200e-15 1 
    0.374145 3.218336e-03 6.897200e-15 1 
    0.374420 3.509711e-03 7.510600e-15 1 
    0.374695 3.394175e-03 7.252700e-15 1 
    0.374970 4.189345e-03 8.938700e-15 1 
    0.375245 3.263338e-03 6.952700e-15 1 
    0.375520 4.052121e-03 8.620600e-15 1 
    0.375795 3.440730e-03 7.309200e-15 1 
    0.376070 3.427052e-03 7.269500e-15 1 
    0.376345 2.966509e-03 6.283400e-15 1 
    0.376620 2.094968e-03 4.430900e-15 1 
    0.376895 2.673662e-03 5.646600e-15 1 
    0.377170 2.911246e-03 6.139400e-15 1 
    0.377445 3.018353e-03 6.356000e-15 1 
    0.377720 2.972056e-03 6.249400e-15 1 
    0.377995 4.150432e-03 8.714500e-15 1 
    0.378270 3.181137e-03 6.669600e-15 1 
    0.378545 3.103751e-03 6.497900e-15 1 
    0.378820 2.581026e-03 5.395700e-15 1 
    0.379095 3.182429e-03 6.643300e-15 1 
    0.379370 3.843522e-03 8.011700e-15 1 
    0.379645 3.337962e-03 6.947800e-15 1 
    0.379920 2.504285e-03 5.205000e-15 1 
    0.380195 3.196540e-03 6.634200e-15 1 
    0.380470 4.557301e-03 9.444700e-15 1 
    0.380745 5.771609e-03 1.194400e-14 1 
    0.381020 6.113371e-03 1.263300e-14 1 
    0.381295 6.174054e-03 1.274000e-14 1 
    0.381570 5.312786e-03 1.094700e-14 1 
    0.381845 3.795660e-03 7.809700e-15 1 
    0.382120 2.376065e-03 4.881800e-15 1 
    0.382395 2.817286e-03 5.780000e-15 1 
    0.382670 4.251144e-03 8.709200e-15 1 
    0.382945 4.487589e-03 9.180400e-15 1 
    0.383220 3.858046e-03 7.881200e-15 1 
    0.383495 3.841819e-03 7.836800e-15 1 
    0.383770 4.011204e-03 8.170600e-15 1 
    0.384045 3.295873e-03 6.703900e-15 1 
    0.384320 3.175688e-03 6.450200e-15 1 
    0.384595 3.619587e-03 7.341300e-15 1 
    0.384870 3.873368e-03 7.844800e-15 1 
    0.385145 3.683645e-03 7.449900e-15 1 
    0.385420 3.274803e-03 6.613600e-15 1 
    0.385695 4.395034e-03 8.863300e-15 1 
    0.385970 4.958958e-03 9.986300e-15 1 
    0.386245 3.868124e-03 7.778500e-15 1 
    0.386520 4.165108e-03 8.363800e-15 1 
    0.386795 3.881043e-03 7.782300e-15 1 
    0.387070 4.358007e-03 8.726300e-15 1 
    0.387345 3.741551e-03 7.481300e-15 1 
    0.387620 3.747217e-03 7.482000e-15 1 
    0.387895 3.788998e-03 7.554700e-15 1 
    0.388170 4.389240e-03 8.739100e-15 1 
    0.388445 3.365188e-03 6.690700e-15 1 
    0.388720 3.528512e-03 7.005500e-15 1 
    0.388995 3.961028e-03 7.853100e-15 1 
    0.389270 4.063661e-03 8.045200e-15 1 
    0.389545 4.351954e-03 8.603800e-15 1 
    0.389820 4.450543e-03 8.786300e-15 1 
    0.390095 3.295026e-03 6.495900e-15 1 
    0.390370 3.765424e-03 7.412800e-15 1 
    0.390645 3.348019e-03 6.581800e-15 1 
    0.390920 3.320286e-03 6.518100e-15 1 
    0.391195 2.965025e-03 5.812500e-15 1 
    0.391470 2.994072e-03 5.861200e-15 1 
    0.391745 1.844383e-03 3.605500e-15 1 
    0.392020 1.620655e-03 3.163700e-15 1 
    0.392295 2.201525e-03 4.291600e-15 1 
    0.392570 3.434009e-03 6.684800e-15 1 
    0.392845 3.746189e-03 7.282300e-15 1 
    0.393120 4.627955e-03 8.983800e-15 1 
    0.393395 3.705048e-03 7.182200e-15 1 
    0.393670 4.249134e-03 8.225400e-15 1 
    0.393945 4.339394e-03 8.388400e-15 1 
    0.394220 4.197245e-03 8.102300e-15 1 
    0.394495 3.902693e-03 7.523200e-15 1 
    0.394770 3.722578e-03 7.166000e-15 1 
    0.395045 4.997891e-03 9.607600e-15 1 
    0.395320 4.773144e-03 9.162800e-15 1 
    0.395595 4.792254e-03 9.186700e-15 1 
    0.395870 3.848246e-03 7.366800e-15 1 
    0.396145 3.354083e-03 6.411900e-15 1 
    0.396420 2.899500e-03 5.535200e-15 1 
    0.396695 3.521924e-03 6.714100e-15 1 
    0.396970 3.335658e-03 6.350200e-15 1 
    0.397245 3.406559e-03 6.476200e-15 1 
    0.397520 4.065805e-03 7.718800e-15 1 
    0.397795 3.577668e-03 6.782700e-15 1 
    0.398070 4.027465e-03 7.624900e-15 1 
    0.398345 4.373874e-03 8.269300e-15 1 
    0.398620 4.027374e-03 7.603700e-15 1 
    0.398895 4.403622e-03 8.302600e-15 1 
    0.399170 5.511456e-03 1.037700e-14 1 
    0.399445 4.724302e-03 8.882700e-15 1 
    0.399720 4.223574e-03 7.930300e-15 1 
    0.399995 4.999288e-03 9.373900e-15 1 
    0.400270 5.135940e-03 9.616900e-15 1 
    0.400545 4.883039e-03 9.130800e-15 1 
    0.400820 5.049707e-03 9.429500e-15 1 
    0.401095 4.503757e-03 8.398500e-15 1 
    0.401370 4.934106e-03 9.188400e-15 1 
    0.401645 3.681131e-03 6.845700e-15 1 
    0.401920 2.902006e-03 5.389400e-15 1 
    0.402195 2.283416e-03 4.234800e-15 1 
    0.402470 2.717250e-03 5.032500e-15 1 
    0.402745 3.926569e-03 7.262300e-15 1 
    0.403020 5.059109e-03 9.344200e-15 1 
    0.403295 3.997697e-03 7.373700e-15 1 
    0.403570 4.477370e-03 8.247200e-15 1 
    0.403845 4.537186e-03 8.346000e-15 1 
    0.404120 4.089302e-03 7.511900e-15 1 
    0.404395 4.385363e-03 8.044800e-15 1 
    0.404670 4.419332e-03 8.096100e-15 1 
    0.404945 3.868463e-03 7.077300e-15 1 
    0.405220 3.039402e-03 5.553000e-15 1 
    0.405495 2.153873e-03 3.929800e-15 1 
    0.405770 3.130202e-03 5.703400e-15 1 
    0.406045 3.679625e-03 6.695400e-15 1 
    0.406320 5.151488e-03 9.360900e-15 1 
    0.406595 4.516087e-03 8.195200e-15 1 
    0.406870 3.594770e-03 6.514500e-15 1 
    0.407145 4.809731e-03 8.704500e-15 1 
    0.407420 6.070293e-03 1.097100e-14 1 
    0.407695 6.548325e-03 1.181900e-14 1 
    0.407970 6.265338e-03 1.129300e-14 1 
    0.408245 7.463213e-03 1.343400e-14 1 
    0.408520 6.518112e-03 1.171700e-14 1 
    0.408795 6.351978e-03 1.140300e-14 1 
    0.409070 6.800069e-03 1.219100e-14 1 
    0.409345 6.290886e-03 1.126300e-14 1 
    0.409620 5.955935e-03 1.064900e-14 1 
    0.409895 5.823923e-03 1.039900e-14 1 
    0.410170 6.398146e-03 1.140900e-14 1 
    0.410445 6.906508e-03 1.229900e-14 1 
    0.410720 6.863472e-03 1.220600e-14 1 
    0.410995 6.767374e-03 1.201900e-14 1 
    0.411270 6.932045e-03 1.229500e-14 1 
    0.411545 6.988178e-03 1.237800e-14 1 
    0.411820 6.860147e-03 1.213500e-14 1 
    0.412095 6.814969e-03 1.203900e-14 1 
    0.412370 6.784390e-03 1.196900e-14 1 
    0.412645 6.438132e-03 1.134300e-14 1 
    0.412920 6.829211e-03 1.201600e-14 1 
    0.413195 6.355713e-03 1.116800e-14 1 
    0.413470 6.512339e-03 1.142800e-14 1 
    0.413745 6.260233e-03 1.097100e-14 1 
    0.414020 6.659950e-03 1.165600e-14 1 
    0.414295 6.633328e-03 1.159400e-14 1 
    0.414570 6.296682e-03 1.099100e-14 1 
    0.414845 6.384776e-03 1.113000e-14 1 
    0.415120 6.315123e-03 1.099400e-14 1 
    0.415395 5.790304e-03 1.006700e-14 1 
    0.415670 6.114739e-03 1.061700e-14 1 
    0.415945 6.013836e-03 1.042800e-14 1 
    0.416220 6.681255e-03 1.157000e-14 1 
    0.416495 6.420632e-03 1.110400e-14 1 
    0.416770 6.001819e-03 1.036600e-14 1 
    0.417045 6.443979e-03 1.111500e-14 1 
    0.417320 6.933731e-03 1.194400e-14 1 
    0.417595 6.295320e-03 1.083000e-14 1 
    0.417870 5.970681e-03 1.025800e-14 1 
    0.418145 6.451207e-03 1.106900e-14 1 
    0.418420 5.648747e-03 9.679400e-15 1 
    0.418695 5.374108e-03 9.196700e-15 1 
    0.418970 5.044082e-03 8.620600e-15 1 
    0.419245 6.015898e-03 1.026800e-14 1 
    0.419520 6.118244e-03 1.042900e-14 1 
    0.419795 5.388343e-03 9.172800e-15 1 
    0.420070 5.603802e-03 9.527100e-15 1 
    0.420345 6.444471e-03 1.094200e-14 1 
    0.420620 6.202267e-03 1.051700e-14 1 
    0.420895 6.729438e-03 1.139600e-14 1 
    0.421170 7.550654e-03 1.277000e-14 1 
    0.421445 7.350930e-03 1.241600e-14 1 
    0.421720 7.028544e-03 1.185600e-14 1 
    0.421995 7.180771e-03 1.209700e-14 1 
    0.422270 7.205586e-03 1.212300e-14 1 
    0.422545 6.984652e-03 1.173600e-14 1 
    0.422820 7.040229e-03 1.181400e-14 1 
    0.423095 6.799970e-03 1.139600e-14 1 
    0.423370 6.659444e-03 1.114600e-14 1 
    0.423645 6.405466e-03 1.070700e-14 1 
    0.423920 6.507233e-03 1.086300e-14 1 
    0.424195 5.834540e-03 9.727400e-15 1 
    0.424470 6.037057e-03 1.005200e-14 1 
    0.424745 6.375029e-03 1.060100e-14 1 
    0.425020 6.815021e-03 1.131800e-14 1 
    0.425295 6.796109e-03 1.127200e-14 1 
    0.425570 6.695631e-03 1.109100e-14 1 
    0.425845 6.728466e-03 1.113100e-14 1 
    0.426120 6.775896e-03 1.119500e-14 1 
    0.426395 6.659800e-03 1.098900e-14 1 
    0.426670 6.261214e-03 1.031800e-14 1 
    0.426945 6.478911e-03 1.066300e-14 1 
    0.427220 6.700805e-03 1.101400e-14 1 
    0.427495 6.726492e-03 1.104200e-14 1 
    0.427770 6.307568e-03 1.034100e-14 1 
    0.428045 6.515393e-03 1.066800e-14 1 
    0.428320 6.887015e-03 1.126200e-14 1 
    0.428595 6.521738e-03 1.065100e-14 1 
    0.428870 6.530723e-03 1.065200e-14 1 
    0.429145 6.733702e-03 1.096900e-14 1 
    0.429420 7.023240e-03 1.142600e-14 1 
    0.429695 7.607693e-03 1.236100e-14 1 
    0.429970 6.960514e-03 1.129500e-14 1 
    0.430245 6.750373e-03 1.094000e-14 1 
    0.430520 7.221138e-03 1.168800e-14 1 
    0.430795 7.547715e-03 1.220100e-14 1 
    0.431070 7.063690e-03 1.140400e-14 1 
    0.431345 7.034252e-03 1.134200e-14 1 
    0.431620 6.683674e-03 1.076300e-14 1 
    0.431895 6.239539e-03 1.003500e-14 1 
    0.432170 6.739317e-03 1.082500e-14 1 
    0.432445 6.472994e-03 1.038400e-14 1 
    0.432720 6.752113e-03 1.081800e-14 1 
    0.432995 7.422519e-03 1.187700e-14 1 
    0.433270 7.869970e-03 1.257700e-14 1 
    0.433545 7.514066e-03 1.199300e-14 1 
    0.433820 7.364259e-03 1.173900e-14 1 
    0.434095 7.464677e-03 1.188400e-14 1 
    0.434370 7.592375e-03 1.207200e-14 1 
    0.434645 7.096956e-03 1.127000e-14 1 
    0.434920 7.209974e-03 1.143500e-14 1 
    0.435195 6.758866e-03 1.070600e-14 1 
    0.435470 7.434290e-03 1.176100e-14 1 
    0.435745 8.037988e-03 1.270000e-14 1 
    0.436020 7.672979e-03 1.210800e-14 1 
    0.436295 7.314010e-03 1.152700e-14 1 
    0.436570 6.822607e-03 1.073900e-14 1 
    0.436845 6.174611e-03 9.706800e-15 1 
    0.437120 6.806053e-03 1.068600e-14 1 
    0.437395 7.559470e-03 1.185400e-14 1 
    0.437670 7.521728e-03 1.178000e-14 1 
    0.437945 6.795326e-03 1.062900e-14 1 
    0.438220 6.606705e-03 1.032100e-14 1 
    0.438495 6.804714e-03 1.061700e-14 1 
    0.438770 6.657953e-03 1.037500e-14 1 
    0.439045 6.591125e-03 1.025800e-14 1 
    0.439320 6.612895e-03 1.027900e-14 1 
    0.439595 5.401936e-03 8.386200e-15 1 
    0.439870 5.346782e-03 8.290200e-15 1 
    0.440145 5.922512e-03 9.171400e-15 1 
    0.440420 5.838103e-03 9.029400e-15 1 
    0.440695 6.723623e-03 1.038600e-14 1 
    0.440970 7.317325e-03 1.128900e-14 1 
    0.441245 8.153269e-03 1.256300e-14 1 
    0.441520 7.635797e-03 1.175100e-14 1 
    0.441795 7.983629e-03 1.227100e-14 1 
    0.442070 7.478298e-03 1.148000e-14 1 
    0.442345 7.817633e-03 1.198600e-14 1 
    0.442620 7.193253e-03 1.101500e-14 1 
    0.442895 6.817729e-03 1.042700e-14 1 
    0.443170 6.906067e-03 1.054900e-14 1 
    0.443445 6.143994e-03 9.373300e-15 1 
    0.443720 6.980973e-03 1.063700e-14 1 
    0.443995 7.630306e-03 1.161200e-14 1 
    0.444270 6.960788e-03 1.058000e-14 1 
    0.444545 6.934496e-03 1.052700e-14 1 
    0.444820 6.803253e-03 1.031500e-14 1 
    0.445095 7.516937e-03 1.138300e-14 1 
    0.445370 7.331842e-03 1.108900e-14 1 
    0.445645 8.486156e-03 1.281900e-14 1 
    0.445920 8.385280e-03 1.265100e-14 1 
    0.446195 8.295416e-03 1.250000e-14 1 
    0.446470 8.677074e-03 1.305900e-14 1 
    0.446745 8.220080e-03 1.235600e-14 1 
    0.447020 7.817228e-03 1.173600e-14 1 
    0.447295 7.809510e-03 1.171000e-14 1 
    0.447570 7.990722e-03 1.196700e-14 1 
    0.447845 7.580694e-03 1.133900e-14 1 
    0.448120 7.122117e-03 1.064000e-14 1 
    0.448395 7.375481e-03 1.100500e-14 1 
    0.448670 7.944157e-03 1.183900e-14 1 
    0.448945 8.248164e-03 1.227700e-14 1 
    0.449220 8.452672e-03 1.256600e-14 1 
    0.449495 8.625334e-03 1.280700e-14 1 
    0.449770 8.473382e-03 1.256600e-14 1 
    0.450045 8.390578e-03 1.242800e-14 1 
    0.450320 8.425847e-03 1.246500e-14 1 
    0.450595 8.072706e-03 1.192800e-14 1 
    0.450870 8.223507e-03 1.213600e-14 1 
    0.451145 9.065308e-03 1.336200e-14 1 
    0.451420 8.284338e-03 1.219600e-14 1 
    0.451695 8.014916e-03 1.178500e-14 1 
    0.451970 8.045786e-03 1.181600e-14 1 
    0.452245 8.885272e-03 1.303300e-14 1 
    0.452520 8.853078e-03 1.297000e-14 1 
    0.452795 8.374520e-03 1.225400e-14 1 
    0.453070 8.943036e-03 1.307000e-14 1 
    0.453345 9.185450e-03 1.340800e-14 1 
    0.453620 8.350192e-03 1.217400e-14 1 
    0.453895 8.722916e-03 1.270200e-14 1 
    0.454170 9.144654e-03 1.330000e-14 1 
    0.454445 9.067617e-03 1.317200e-14 1 
    0.454720 8.957978e-03 1.299700e-14 1 
    0.454995 8.961916e-03 1.298700e-14 1 
    0.455270 8.732318e-03 1.263900e-14 1 
    0.455545 8.286324e-03 1.197900e-14 1 
    0.455820 8.426535e-03 1.216700e-14 1 
    0.456095 8.644035e-03 1.246600e-14 1 
    0.456370 8.903002e-03 1.282400e-14 1 
    0.456645 7.804384e-03 1.122800e-14 1 
    0.456920 8.898725e-03 1.278700e-14 1 
    0.457195 8.578480e-03 1.231200e-14 1 
    0.457470 8.958529e-03 1.284200e-14 1 
    0.457745 9.325504e-03 1.335200e-14 1 
    0.458020 9.159097e-03 1.309800e-14 1 
    0.458295 9.707786e-03 1.386600e-14 1 
    0.458570 9.897483e-03 1.412000e-14 1 
    0.458845 8.784378e-03 1.251700e-14 1 
    0.459120 9.137095e-03 1.300400e-14 1 
    0.459395 9.339390e-03 1.327600e-14 1 
    0.459670 9.553420e-03 1.356400e-14 1 
    0.459945 9.841279e-03 1.395600e-14 1 
    0.460220 9.492987e-03 1.344600e-14 1 
    0.460495 1.009032e-02 1.427500e-14 1 
    0.460770 1.069896e-02 1.511800e-14 1 
    0.461045 9.607825e-03 1.356000e-14 1 
    0.461320 9.889567e-03 1.394100e-14 1 
    0.461595 1.018190e-02 1.433600e-14 1 
    0.461870 1.032274e-02 1.451700e-14 1 
    0.462145 9.846658e-03 1.383100e-14 1 
    0.462420 9.601069e-03 1.347000e-14 1 
    0.462695 8.988072e-03 1.259500e-14 1 
    0.462970 8.334301e-03 1.166500e-14 1 
    0.463245 8.937921e-03 1.249500e-14 1 
    0.463520 8.758752e-03 1.223000e-14 1 
    0.463795 9.499790e-03 1.324900e-14 1 
    0.464070 9.694115e-03 1.350400e-14 1 
    0.464345 9.807667e-03 1.364600e-14 1 
    0.464620 9.631478e-03 1.338500e-14 1 
    0.464895 9.676743e-03 1.343200e-14 1 
    0.465170 9.591543e-03 1.329800e-14 1 
    0.465445 9.420189e-03 1.304500e-14 1 
    0.465720 1.040157e-02 1.438700e-14 1 
    0.465995 9.886177e-03 1.365800e-14 1 
    0.466270 9.462309e-03 1.305700e-14 1 
    0.466545 1.034195e-02 1.425400e-14 1 
    0.466820 9.993128e-03 1.375700e-14 1 
    0.467095 1.042235e-02 1.433100e-14 1 
    0.467370 1.025769e-02 1.408800e-14 1 
    0.467645 9.891434e-03 1.356900e-14 1 
    0.467920 1.042052e-02 1.427800e-14 1 
    0.468195 1.035532e-02 1.417200e-14 1 
    0.468470 1.009828e-02 1.380400e-14 1 
    0.468745 9.865513e-03 1.347000e-14 1 
    0.469020 1.052603e-02 1.435500e-14 1 
    0.469295 1.018820e-02 1.387800e-14 1 
    0.469570 9.898066e-03 1.346700e-14 1 
    0.469845 9.970002e-03 1.354900e-14 1 
    0.470120 9.772451e-03 1.326500e-14 1 
    0.470395 9.780199e-03 1.326000e-14 1 
    0.470670 1.045475e-02 1.415800e-14 1 
    0.470945 1.022300e-02 1.382800e-14 1 
    0.471220 9.975891e-03 1.347800e-14 1 
    0.471495 1.085083e-02 1.464300e-14 1 
    0.471770 1.042726e-02 1.405500e-14 1 
    0.472045 1.083605e-02 1.458900e-14 1 
    0.472320 1.070516e-02 1.439600e-14 1 
    0.472595 1.096555e-02 1.472900e-14 1 
    0.472870 1.086502e-02 1.457700e-14 1 
    0.473145 1.057619e-02 1.417300e-14 1 
    0.473420 9.759216e-03 1.306300e-14 1 
    0.473695 1.065240e-02 1.424200e-14 1 
    0.473970 1.076511e-02 1.437600e-14 1 
    0.474245 1.076486e-02 1.435900e-14 1 
    0.474520 9.998266e-03 1.332100e-14 1 
    0.474795 1.031945e-02 1.373300e-14 1 
    0.475070 1.071433e-02 1.424200e-14 1 
    0.475345 1.034186e-02 1.373100e-14 1 
    0.475620 1.010198e-02 1.339700e-14 1 
    0.475895 1.065041e-02 1.410800e-14 1 
    0.476170 1.044506e-02 1.382000e-14 1 
    0.476445 1.082638e-02 1.430800e-14 1 
    0.476720 1.084343e-02 1.431400e-14 1 
    0.476995 9.878345e-03 1.302500e-14 1 
    0.477270 1.003780e-02 1.322000e-14 1 
    0.477545 1.020216e-02 1.342100e-14 1 
    0.477820 1.002290e-02 1.317000e-14 1 
    0.478095 1.008548e-02 1.323700e-14 1 
    0.478370 1.018786e-02 1.335600e-14 1 
    0.478645 1.032329e-02 1.351800e-14 1 
    0.478920 1.042461e-02 1.363500e-14 1 
    0.479195 1.059426e-02 1.384100e-14 1 
    0.479470 1.033132e-02 1.348200e-14 1 
    0.479745 1.063317e-02 1.386000e-14 1 
    0.480020 1.042340e-02 1.357100e-14 1 
    0.480295 1.006548e-02 1.309000e-14 1 
    0.480570 9.432668e-03 1.225300e-14 1 
    0.480845 9.589900e-03 1.244300e-14 1 
    0.481120 9.853181e-03 1.277000e-14 1 
    0.481395 1.065469e-02 1.379300e-14 1 
    0.481670 1.053617e-02 1.362400e-14 1 
    0.481945 9.833580e-03 1.270100e-14 1 
    0.482220 1.034941e-02 1.335200e-14 1 
    0.482495 1.102858e-02 1.421200e-14 1 
    0.482770 1.143271e-02 1.471600e-14 1 
    0.483045 1.132052e-02 1.455500e-14 1 
    0.483320 1.096899e-02 1.408700e-14 1 
    0.483595 1.095965e-02 1.405900e-14 1 
    0.483870 1.057176e-02 1.354600e-14 1 
    0.484145 1.051893e-02 1.346300e-14 1 
    0.484420 1.097205e-02 1.402700e-14 1 
    0.484695 1.100957e-02 1.405900e-14 1 
    0.484970 1.153479e-02 1.471300e-14 1 
    0.485245 1.185869e-02 1.510900e-14 1 
    0.485520 1.176684e-02 1.497500e-14 1 
    0.485795 1.187615e-02 1.509700e-14 1 
    0.486070 1.160923e-02 1.474100e-14 1 
    0.486345 1.129044e-02 1.432000e-14 1 
    0.486620 1.160631e-02 1.470400e-14 1 
    0.486895 1.142267e-02 1.445500e-14 1 
    0.487170 1.147988e-02 1.451100e-14 1 
    0.487445 1.085448e-02 1.370500e-14 1 
    0.487720 1.040368e-02 1.312100e-14 1 
    0.487995 1.078929e-02 1.359200e-14 1 
    0.488270 1.134184e-02 1.427200e-14 1 
    0.488545 1.098945e-02 1.381300e-14 1 
    0.488820 1.116431e-02 1.401700e-14 1 
    0.489095 1.161065e-02 1.456100e-14 1 
    0.489370 1.130919e-02 1.416700e-14 1 
    0.489645 1.119403e-02 1.400700e-14 1 
    0.489920 1.147623e-02 1.434400e-14 1 
    0.490195 1.146990e-02 1.432000e-14 1 
    0.490470 1.202002e-02 1.499000e-14 1 
    0.490745 1.145712e-02 1.427200e-14 1 
    0.491020 1.185010e-02 1.474500e-14 1 
    0.491295 1.183682e-02 1.471200e-14 1 
    0.491570 1.161408e-02 1.441900e-14 1 
    0.491845 1.162627e-02 1.441800e-14 1 
    0.492120 1.176763e-02 1.457700e-14 1 
    0.492395 1.193757e-02 1.477100e-14 1 
    0.492670 1.183278e-02 1.462500e-14 1 
    0.492945 1.165727e-02 1.439200e-14 1 
    0.493220 1.139782e-02 1.405600e-14 1 
    0.493495 1.116375e-02 1.375200e-14 1 
    0.493770 1.073653e-02 1.321100e-14 1 
    0.494045 1.115366e-02 1.370900e-14 1 
    0.494320 1.142917e-02 1.403200e-14 1 
    0.494595 1.201350e-02 1.473300e-14 1 
    0.494870 1.090197e-02 1.335500e-14 1 
    0.495145 1.091736e-02 1.335900e-14 1 
    0.495420 1.113402e-02 1.360900e-14 1 
    0.495695 1.138882e-02 1.390500e-14 1 
    0.495970 1.091851e-02 1.331600e-14 1 
    0.496245 1.083704e-02 1.320200e-14 1 
    0.496520 1.094110e-02 1.331400e-14 1 
    0.496795 1.096803e-02 1.333200e-14 1 
    0.497070 1.109383e-02 1.347000e-14 1 
    0.497345 1.101211e-02 1.335600e-14 1 
    0.497620 1.080804e-02 1.309400e-14 1 
    0.497895 1.090179e-02 1.319300e-14 1 
    0.498170 1.093204e-02 1.321500e-14 1 
    0.498445 1.045550e-02 1.262500e-14 1 
    0.498720 1.104987e-02 1.332800e-14 1 
    0.498995 1.092761e-02 1.316600e-14 1 
    0.499270 1.129943e-02 1.359900e-14 1 
    0.499545 1.122205e-02 1.349100e-14 1 
    0.499820 1.089299e-02 1.308100e-14 1 
    0.500095 1.160274e-02 1.391800e-14 1 
    0.500370 1.252936e-02 1.501300e-14 1 
    0.500645 1.246209e-02 1.491600e-14 1 
    0.500920 1.180917e-02 1.411900e-14 1 
    0.501195 1.219391e-02 1.456300e-14 1 
    0.501470 1.250152e-02 1.491400e-14 1 
    0.501745 1.206125e-02 1.437300e-14 1 
    0.502020 1.213160e-02 1.444100e-14 1 
    0.502295 1.207173e-02 1.435400e-14 1 
    0.502570 1.124387e-02 1.335500e-14 1 
    0.502845 1.100754e-02 1.306000e-14 1 
    0.503120 1.133853e-02 1.343800e-14 1 
    0.503395 1.106035e-02 1.309400e-14 1 
    0.503670 1.154091e-02 1.364800e-14 1 
    0.503945 1.215963e-02 1.436400e-14 1 
    0.504220 1.222460e-02 1.442500e-14 1 
    0.504495 1.243561e-02 1.465800e-14 1 
    0.504770 1.237868e-02 1.457500e-14 1 
    0.505045 1.251376e-02 1.471800e-14 1 
    0.505320 1.205755e-02 1.416600e-14 1 
    0.505595 1.244474e-02 1.460500e-14 1 
    0.505870 1.295986e-02 1.519300e-14 1 
    0.506145 1.293723e-02 1.515000e-14 1 
    0.506420 1.266577e-02 1.481600e-14 1 
    0.506695 1.239711e-02 1.448600e-14 1 
    0.506970 1.245769e-02 1.454100e-14 1 
    0.507245 1.278340e-02 1.490500e-14 1 
    0.507520 1.231130e-02 1.433900e-14 1 
    0.507795 1.240029e-02 1.442700e-14 1 
    0.508070 1.185701e-02 1.378000e-14 1 
    0.508345 1.179577e-02 1.369400e-14 1 
    0.508620 1.217674e-02 1.412100e-14 1 
    0.508895 1.183943e-02 1.371500e-14 1 
    0.509170 1.176927e-02 1.361900e-14 1 
    0.509445 1.124129e-02 1.299400e-14 1 
    0.509720 1.145349e-02 1.322500e-14 1 
    0.509995 1.210568e-02 1.396300e-14 1 
    0.510270 1.193214e-02 1.374800e-14 1 
    0.510545 1.232035e-02 1.418000e-14 1 
    0.510820 1.236929e-02 1.422100e-14 1 
    0.511095 1.275441e-02 1.464800e-14 1 
    0.511370 1.347506e-02 1.545900e-14 1 
    0.511645 1.405675e-02 1.610900e-14 1 
    0.511920 1.405352e-02 1.608800e-14 1 
    0.512195 1.359028e-02 1.554100e-14 1 
    0.512470 1.283714e-02 1.466400e-14 1 
    0.512745 1.202101e-02 1.371700e-14 1 
    0.513020 1.173825e-02 1.338000e-14 1 
    0.513295 1.165511e-02 1.327100e-14 1 
    0.513570 1.155947e-02 1.314800e-14 1 
    0.513845 1.148912e-02 1.305400e-14 1 
    0.514120 1.215869e-02 1.380000e-14 1 
    0.514395 1.235428e-02 1.400700e-14 1 
    0.514670 1.179269e-02 1.335600e-14 1 
    0.514945 1.198119e-02 1.355500e-14 1 
    0.515220 1.204531e-02 1.361300e-14 1 
    0.515495 1.206349e-02 1.361900e-14 1 
    0.515770 1.219962e-02 1.375800e-14 1 
    0.516045 1.233957e-02 1.390100e-14 1 
    0.516320 1.252778e-02 1.409800e-14 1 
    0.516595 1.260785e-02 1.417300e-14 1 
    0.516870 1.270142e-02 1.426300e-14 1 
    0.517145 1.271761e-02 1.426600e-14 1 
    0.517420 1.278112e-02 1.432200e-14 1 
    0.517695 1.294390e-02 1.448900e-14 1 
    0.517970 1.267952e-02 1.417800e-14 1 
    0.518245 1.273149e-02 1.422100e-14 1 
    0.518520 1.247256e-02 1.391700e-14 1 
    0.518795 1.196633e-02 1.333800e-14 1 
    0.519070 1.196106e-02 1.331800e-14 1 
    0.519345 1.196565e-02 1.330900e-14 1 
    0.519620 1.156161e-02 1.284600e-14 1 
    0.519895 1.196848e-02 1.328400e-14 1 
    0.520170 1.246728e-02 1.382300e-14 1 
    0.520445 1.200104e-02 1.329200e-14 1 
    0.520720 1.189894e-02 1.316500e-14 1 
    0.520995 1.233223e-02 1.363000e-14 1 
    0.521270 1.202734e-02 1.327900e-14 1 
    0.521545 1.194755e-02 1.317700e-14 1 
    0.521820 1.220159e-02 1.344300e-14 1 
    0.522095 1.177287e-02 1.295700e-14 1 
    0.522370 1.190443e-02 1.308800e-14 1 
    0.522645 1.215279e-02 1.334700e-14 1 
    0.522920 1.229228e-02 1.348600e-14 1 
    0.523195 1.229335e-02 1.347300e-14 1 
    0.523470 1.199846e-02 1.313600e-14 1 
    0.523745 1.188123e-02 1.299400e-14 1 
    0.524020 1.189371e-02 1.299400e-14 1 
    0.524295 1.184389e-02 1.292600e-14 1 
    0.524570 1.191227e-02 1.298700e-14 1 
    0.524845 1.238846e-02 1.349200e-14 1 
    0.525120 1.268639e-02 1.380200e-14 1 
    0.525395 1.250553e-02 1.359100e-14 1 
    0.525670 1.237770e-02 1.343800e-14 1 
    0.525945 1.226802e-02 1.330500e-14 1 
    0.526220 1.205563e-02 1.306100e-14 1 
    0.526495 1.205253e-02 1.304400e-14 1 
    0.526770 1.209102e-02 1.307200e-14 1 
    0.527045 1.280920e-02 1.383400e-14 1 
    0.527320 1.273729e-02 1.374200e-14 1 
    0.527595 1.212243e-02 1.306500e-14 1 
    0.527870 1.125176e-02 1.211400e-14 1 
    0.528145 1.100686e-02 1.183800e-14 1 
    0.528420 1.106952e-02 1.189300e-14 1 
    0.528695 1.069065e-02 1.147400e-14 1 
    0.528970 1.105620e-02 1.185400e-14 1 
    0.529245 1.114052e-02 1.193200e-14 1 
    0.529520 1.065955e-02 1.140500e-14 1 
    0.529795 1.073518e-02 1.147400e-14 1 
    0.530070 1.157895e-02 1.236300e-14 1 
    0.530345 1.215350e-02 1.296300e-14 1 
    0.530620 1.175878e-02 1.252900e-14 1 
    0.530895 1.253197e-02 1.333900e-14 1 
    0.531170 1.336787e-02 1.421400e-14 1 
    0.531445 1.289969e-02 1.370200e-14 1 
    0.531720 1.253796e-02 1.330400e-14 1 
    0.531995 1.258112e-02 1.333600e-14 1 
    0.532270 1.207190e-02 1.278300e-14 1 
    0.532545 1.162777e-02 1.230000e-14 1 
    0.532820 1.223029e-02 1.292400e-14 1 
    0.533095 1.290982e-02 1.362800e-14 1 
    0.533370 1.342099e-02 1.415300e-14 1 
    0.533645 1.319562e-02 1.390100e-14 1 
    0.533920 1.339262e-02 1.409400e-14 1 
    0.534195 1.293556e-02 1.359900e-14 1 
    0.534470 1.285176e-02 1.349700e-14 1 
    0.534745 1.294506e-02 1.358100e-14 1 
    0.535020 1.305093e-02 1.367800e-14 1 
    0.535295 1.400420e-02 1.466200e-14 1 
    0.535570 1.413142e-02 1.478000e-14 1 
    0.535845 1.362910e-02 1.424000e-14 1 
    0.536120 1.310561e-02 1.367900e-14 1 
    0.536395 1.326579e-02 1.383200e-14 1 
    0.536670 1.319587e-02 1.374500e-14 1 
    0.536945 1.364859e-02 1.420200e-14 1 
    0.537220 1.337012e-02 1.389800e-14 1 
    0.537495 1.403673e-02 1.457600e-14 1 
    0.537770 1.342258e-02 1.392400e-14 1 
    0.538045 1.256204e-02 1.301800e-14 1 
    0.538320 1.258261e-02 1.302600e-14 1 
    0.538595 1.278113e-02 1.321800e-14 1 
    0.538870 1.236345e-02 1.277300e-14 1 
    0.539145 1.330333e-02 1.373000e-14 1 
    0.539420 1.346724e-02 1.388500e-14 1 
    0.539695 1.343632e-02 1.383900e-14 1 
    0.539970 1.379601e-02 1.419500e-14 1 
    0.540245 1.386357e-02 1.425000e-14 1 
    0.540520 1.371895e-02 1.408700e-14 1 
    0.540795 1.372999e-02 1.408400e-14 1 
    0.541070 1.363271e-02 1.397000e-14 1 
    0.541345 1.387417e-02 1.420300e-14 1 
    0.541620 1.359101e-02 1.389900e-14 1 
    0.541895 1.336598e-02 1.365500e-14 1 
    0.542170 1.403897e-02 1.432800e-14 1 
    0.542445 1.466917e-02 1.495600e-14 1 
    0.542720 1.448376e-02 1.475200e-14 1 
    0.542995 1.414660e-02 1.439400e-14 1 
    0.543270 1.407927e-02 1.431100e-14 1 
    0.543545 1.387195e-02 1.408600e-14 1 
    0.543820 1.397373e-02 1.417500e-14 1 
    0.544095 1.363261e-02 1.381500e-14 1 
    0.544370 1.308533e-02 1.324700e-14 1 
    0.544645 1.279994e-02 1.294500e-14 1 
    0.544920 1.352948e-02 1.366900e-14 1 
    0.545195 1.360556e-02 1.373200e-14 1 
    0.545470 1.365896e-02 1.377200e-14 1 
    0.545745 1.466652e-02 1.477300e-14 1 
    0.546020 1.423211e-02 1.432100e-14 1 
    0.546295 1.361177e-02 1.368300e-14 1 
    0.546570 1.339644e-02 1.345300e-14 1 
    0.546845 1.396514e-02 1.401000e-14 1 
    0.547120 1.494906e-02 1.498200e-14 1 
    0.547395 1.479429e-02 1.481200e-14 1 
    0.547670 1.465319e-02 1.465600e-14 1 
    0.547945 1.529442e-02 1.528200e-14 1 
    0.548220 1.498919e-02 1.496200e-14 1 
    0.548495 1.537528e-02 1.533200e-14 1 
    0.548770 1.477134e-02 1.471500e-14 1 
    0.549045 1.418123e-02 1.411300e-14 1 
    0.549320 1.413610e-02 1.405400e-14 1 
    0.549595 1.484196e-02 1.474100e-14 1 
    0.549870 1.535268e-02 1.523300e-14 1 
    0.550145 1.477584e-02 1.464600e-14 1 
    0.550420 1.515013e-02 1.500200e-14 1 
    0.550695 1.508238e-02 1.492000e-14 1 
    0.550970 1.351586e-02 1.335700e-14 1 
    0.551245 1.438931e-02 1.420600e-14 1 
    0.551520 1.404474e-02 1.385200e-14 1 
    0.551795 1.329857e-02 1.310300e-14 1 
    0.552070 1.371516e-02 1.350000e-14 1 
    0.552345 1.320408e-02 1.298400e-14 1 
    0.552620 1.287825e-02 1.265100e-14 1 
    0.552895 1.380713e-02 1.355000e-14 1 
    0.553170 1.419928e-02 1.392100e-14 1 
    0.553445 1.433797e-02 1.404300e-14 1 
    0.553720 1.436142e-02 1.405200e-14 1 
    0.553995 1.488618e-02 1.455100e-14 1 
    0.554270 1.542221e-02 1.506000e-14 1 
    0.554545 1.473944e-02 1.437900e-14 1 
    0.554820 1.459913e-02 1.422800e-14 1 
    0.555095 1.411443e-02 1.374200e-14 1 
    0.555370 1.341285e-02 1.304600e-14 1 
    0.555645 1.432560e-02 1.392000e-14 1 
    0.555920 1.327666e-02 1.288800e-14 1 
    0.556195 1.514179e-02 1.468400e-14 1 
    0.556470 1.457874e-02 1.412400e-14 1 
    0.556745 1.483699e-02 1.436000e-14 1 
    0.557020 1.473685e-02 1.424900e-14 1 
    0.557295 1.409091e-02 1.361100e-14 1 
    0.557570 1.372762e-02 1.324700e-14 1 
    0.557845 1.506061e-02 1.451900e-14 1 
    0.558120 1.478369e-02 1.423800e-14 1 
    0.558395 1.501861e-02 1.445000e-14 1 
    0.558670 1.442583e-02 1.386600e-14 1 
    0.558945 1.407242e-02 1.351300e-14 1 
    0.559220 1.516518e-02 1.454800e-14 1 
    0.559495 1.466150e-02 1.405100e-14 1 
    0.559770 1.423933e-02 1.363300e-14 1 
    0.560045 1.472798e-02 1.408700e-14 1 
    0.560320 1.389685e-02 1.327900e-14 1 
    0.560595 1.393983e-02 1.330700e-14 1 
    0.560870 1.475463e-02 1.407100e-14 1 
    0.561145 1.459381e-02 1.390400e-14 1 
    0.561420 1.470583e-02 1.399700e-14 1 
    0.561695 1.449834e-02 1.378600e-14 1 
    0.561970 1.540944e-02 1.463800e-14 1 
    0.562245 1.484075e-02 1.408400e-14 1 
    0.562520 1.502298e-02 1.424300e-14 1 
    0.562795 1.460691e-02 1.383500e-14 1 
    0.563070 1.461274e-02 1.382700e-14 1 
    0.563345 1.522259e-02 1.439000e-14 1 
    0.563620 1.478742e-02 1.396500e-14 1 
    0.563895 1.426130e-02 1.345500e-14 1 
    0.564170 1.508048e-02 1.421400e-14 1 
    0.564445 1.518439e-02 1.429800e-14 1 
    0.564720 1.475059e-02 1.387600e-14 1 
    0.564995 1.463834e-02 1.375700e-14 1 
    0.565270 1.467602e-02 1.377900e-14 1 
    0.565545 1.547392e-02 1.451400e-14 1 
    0.565820 1.658816e-02 1.554400e-14 1 
    0.566095 1.486524e-02 1.391600e-14 1 
    0.566370 1.629323e-02 1.523800e-14 1 
    0.566645 1.578354e-02 1.474700e-14 1 
    0.566920 1.505858e-02 1.405600e-14 1 
    0.567195 1.633108e-02 1.522900e-14 1 
    0.567470 1.606354e-02 1.496500e-14 1 
    0.567745 1.620160e-02 1.507900e-14 1 
    0.568020 1.531282e-02 1.423800e-14 1 
    0.568295 1.477969e-02 1.372900e-14 1 
    0.568570 1.557416e-02 1.445300e-14 1 
    0.568845 1.570572e-02 1.456100e-14 1 
    0.569120 1.459914e-02 1.352200e-14 1 
    0.569395 1.524006e-02 1.410200e-14 1 
    0.569670 1.477557e-02 1.365900e-14 1 
    0.569945 1.544818e-02 1.426700e-14 1 
    0.570220 1.556714e-02 1.436300e-14 1 
    0.570495 1.550296e-02 1.429000e-14 1 
    0.570770 1.531376e-02 1.410200e-14 1 
    0.571045 1.637093e-02 1.506100e-14 1 
    0.571320 1.520402e-02 1.397400e-14 1 
    0.571595 1.438770e-02 1.321100e-14 1 
    0.571870 1.514828e-02 1.389600e-14 1 
    0.572145 1.454743e-02 1.333200e-14 1 
    0.572420 1.441069e-02 1.319400e-14 1 
    0.572695 1.429772e-02 1.307800e-14 1 
    0.572970 1.429942e-02 1.306700e-14 1 
    0.573245 1.437339e-02 1.312200e-14 1 
    0.573520 1.614365e-02 1.472400e-14 1 
    0.573795 1.576405e-02 1.436400e-14 1 
    0.574070 1.543422e-02 1.405000e-14 1 
    0.574345 1.535445e-02 1.396400e-14 1 
    0.574620 1.595689e-02 1.449800e-14 1 
    0.574895 1.546319e-02 1.403600e-14 1 
    0.575170 1.565112e-02 1.419300e-14 1 
    0.575445 1.549721e-02 1.404000e-14 1 
    0.575720 1.580039e-02 1.430100e-14 1 
    0.575995 1.616827e-02 1.462000e-14 1 
    0.576270 1.520627e-02 1.373700e-14 1 
    0.576545 1.442745e-02 1.302100e-14 1 
    0.576820 1.554585e-02 1.401700e-14 1 
    0.577095 1.568279e-02 1.412700e-14 1 
    0.577370 1.561440e-02 1.405200e-14 1 
    0.577645 1.512098e-02 1.359500e-14 1 
    0.577920 1.573323e-02 1.413200e-14 1 
    0.578195 1.602457e-02 1.438000e-14 1 
    0.578470 1.547429e-02 1.387300e-14 1 
    0.578745 1.506251e-02 1.349100e-14 1 
    0.579020 1.591164e-02 1.423800e-14 1 
    0.579295 1.655430e-02 1.479900e-14 1 
    0.579570 1.478526e-02 1.320500e-14 1 
    0.579845 1.643220e-02 1.466200e-14 1 
    0.580120 1.579940e-02 1.408400e-14 1 
    0.580395 1.656894e-02 1.475600e-14 1 
    0.580670 1.611709e-02 1.434000e-14 1 
    0.580945 1.581511e-02 1.405800e-14 1 
    0.581220 1.667238e-02 1.480600e-14 1 
    0.581495 1.590707e-02 1.411300e-14 1 
    0.581770 1.572807e-02 1.394100e-14 1 
    0.582045 1.659666e-02 1.469700e-14 1 
    0.582320 1.654565e-02 1.463800e-14 1 
    0.582595 1.698443e-02 1.501200e-14 1 
    0.582870 1.699140e-02 1.500400e-14 1 
    0.583145 1.526861e-02 1.347000e-14 1 
    0.583420 1.522061e-02 1.341500e-14 1 
    0.583695 1.560178e-02 1.373800e-14 1 
    0.583970 1.553351e-02 1.366500e-14 1 
    0.584245 1.528531e-02 1.343400e-14 1 
    0.584520 1.574158e-02 1.382200e-14 1 
    0.584795 1.625456e-02 1.425900e-14 1 
    0.585070 1.637939e-02 1.435500e-14 1 
    0.585345 1.624860e-02 1.422700e-14 1 
    0.585620 1.690747e-02 1.479000e-14 1 
    0.585895 1.681923e-02 1.469900e-14 1 
    0.586170 1.616387e-02 1.411300e-14 1 
    0.586445 1.579270e-02 1.377600e-14 1 
    0.586720 1.724759e-02 1.503100e-14 1 
    0.586995 1.741307e-02 1.516100e-14 1 
    0.587270 1.693046e-02 1.472700e-14 1 
    0.587545 1.583935e-02 1.376500e-14 1 
    0.587820 1.698983e-02 1.475100e-14 1 
    0.588095 1.629211e-02 1.413200e-14 1 
    0.588370 1.712434e-02 1.484000e-14 1 
    0.588645 1.588947e-02 1.375700e-14 1 
    0.588920 1.623265e-02 1.404100e-14 1 
    0.589195 1.692939e-02 1.463000e-14 1 
    0.589470 1.675871e-02 1.446900e-14 1 
    0.589745 1.785833e-02 1.540400e-14 1 
    0.590020 1.740038e-02 1.499500e-14 1 
    0.590295 1.708209e-02 1.470700e-14 1 
    0.590570 1.709453e-02 1.470400e-14 1 
    0.590845 1.688470e-02 1.451000e-14 1 
    0.591120 1.669542e-02 1.433400e-14 1 
    0.591395 1.649062e-02 1.414500e-14 1 
    0.591670 1.681636e-02 1.441100e-14 1 
    0.591945 1.584971e-02 1.357000e-14 1 
    0.592220 1.669566e-02 1.428100e-14 1 
    0.592495 1.709381e-02 1.460800e-14 1 
    0.592770 1.794245e-02 1.531900e-14 1 
    0.593045 1.660856e-02 1.416700e-14 1 
    0.593320 1.639280e-02 1.397000e-14 1 
    0.593595 1.628468e-02 1.386500e-14 1 
    0.593870 1.750006e-02 1.488600e-14 1 
    0.594145 1.746214e-02 1.484000e-14 1 
    0.594420 1.697069e-02 1.440900e-14 1 
    0.594695 1.728347e-02 1.466100e-14 1 
    0.594970 1.712600e-02 1.451400e-14 1 
    0.595245 1.712767e-02 1.450200e-14 1 
    0.595520 1.642002e-02 1.389000e-14 1 
    0.595795 1.764328e-02 1.491100e-14 1 
    0.596070 1.808474e-02 1.527000e-14 1 
    0.596345 1.810262e-02 1.527100e-14 1 
    0.596620 1.783930e-02 1.503500e-14 1 
    0.596895 1.754460e-02 1.477300e-14 1 
    0.597170 1.691886e-02 1.423300e-14 1 
    0.597445 1.743536e-02 1.465400e-14 1 
    0.597720 1.793730e-02 1.506200e-14 1 
    0.597995 1.755806e-02 1.473000e-14 1 
    0.598270 1.719123e-02 1.440900e-14 1 
    0.598545 1.595315e-02 1.335900e-14 1 
    0.598820 1.578971e-02 1.321000e-14 1 
    0.599095 1.649692e-02 1.378900e-14 1 
    0.599370 1.617917e-02 1.351100e-14 1 
    0.599645 1.623118e-02 1.354200e-14 1 
    0.599920 1.681831e-02 1.401900e-14 1 
    0.600195 1.716395e-02 1.429400e-14 1 
    0.600470 1.726382e-02 1.436400e-14 1 
    0.600745 1.715693e-02 1.426200e-14 1 
    0.601020 1.770605e-02 1.470500e-14 1 
    0.601295 1.732454e-02 1.437500e-14 1 
    0.601570 1.694353e-02 1.404600e-14 1 
    0.601845 1.660646e-02 1.375400e-14 1 
    0.602120 1.626755e-02 1.346100e-14 1 
    0.602395 1.596671e-02 1.320000e-14 1 
    0.602670 1.568830e-02 1.295800e-14 1 
    0.602945 1.610858e-02 1.329300e-14 1 
    0.603220 1.714212e-02 1.413300e-14 1 
    0.603495 1.687367e-02 1.389900e-14 1 
    0.603770 1.660715e-02 1.366700e-14 1 
    0.604045 1.640092e-02 1.348500e-14 1 
    0.604320 1.684315e-02 1.383600e-14 1 
    0.604595 1.762367e-02 1.446400e-14 1 
    0.604870 1.685065e-02 1.381700e-14 1 
    0.605145 1.654494e-02 1.355400e-14 1 
    0.605420 1.739568e-02 1.423800e-14 1 
    0.605695 1.816478e-02 1.485400e-14 1 
    0.605970 1.758764e-02 1.436900e-14 1 
    0.606245 1.726548e-02 1.409300e-14 1 
    0.606520 1.861527e-02 1.518100e-14 1 
    0.606795 1.804549e-02 1.470300e-14 1 
    0.607070 1.741200e-02 1.417400e-14 1 
    0.607345 1.660890e-02 1.350800e-14 1 
    0.607620 1.646026e-02 1.337500e-14 1 
    0.607895 1.744211e-02 1.416000e-14 1 
    0.608170 1.789188e-02 1.451200e-14 1 
    0.608445 1.699736e-02 1.377400e-14 1 
    0.608720 1.713501e-02 1.387300e-14 1 
    0.608995 1.760790e-02 1.424300e-14 1 
    0.609270 1.663268e-02 1.344200e-14 1 
    0.609545 1.650156e-02 1.332400e-14 1 
    0.609820 1.757507e-02 1.417800e-14 1 
    0.610095 1.888748e-02 1.522300e-14 1 
    0.610370 1.727522e-02 1.391100e-14 1 
    0.610645 1.841939e-02 1.481900e-14 1 
    0.610920 1.751288e-02 1.407700e-14 1 
    0.611195 1.724475e-02 1.384900e-14 1 
    0.611470 1.778870e-02 1.427300e-14 1 
    0.611745 1.662713e-02 1.332900e-14 1 
    0.612020 1.705535e-02 1.366000e-14 1 
    0.612295 1.793671e-02 1.435300e-14 1 
    0.612570 1.785401e-02 1.427400e-14 1 
    0.612845 1.877895e-02 1.500000e-14 1 
    0.613120 1.896372e-02 1.513400e-14 1 
    0.613395 1.815548e-02 1.447600e-14 1 
    0.613670 1.836257e-02 1.462800e-14 1 
    0.613945 1.729222e-02 1.376300e-14 1 
    0.614220 1.698453e-02 1.350600e-14 1 
    0.614495 1.680716e-02 1.335300e-14 1 
    0.614770 1.754911e-02 1.393000e-14 1 
    0.615045 1.745386e-02 1.384200e-14 1 
    0.615320 1.762975e-02 1.396900e-14 1 
    0.615595 1.817353e-02 1.438700e-14 1 
    0.615870 1.838953e-02 1.454500e-14 1 
    0.616145 1.917535e-02 1.515300e-14 1 
    0.616420 1.830966e-02 1.445600e-14 1 
    0.616695 1.924636e-02 1.518200e-14 1 
    0.616970 1.957186e-02 1.542500e-14 1 
    0.617245 1.851110e-02 1.457600e-14 1 
    0.617520 1.733531e-02 1.363800e-14 1 
    0.617795 1.781003e-02 1.399900e-14 1 
    0.618070 1.949145e-02 1.530700e-14 1 
    0.618345 1.816675e-02 1.425400e-14 1 
    0.618620 1.851458e-02 1.451400e-14 1 
    0.618895 1.875065e-02 1.468600e-14 1 
    0.619170 1.942671e-02 1.520200e-14 1 
    0.619445 1.850132e-02 1.446500e-14 1 
    0.619720 1.877635e-02 1.466700e-14 1 
    0.619995 1.953490e-02 1.524600e-14 1 
    0.620270 1.972536e-02 1.538100e-14 1 
    0.620545 1.895986e-02 1.477100e-14 1 
    0.620820 1.838698e-02 1.431200e-14 1 
    0.621095 1.868231e-02 1.452900e-14 1 
    0.621370 1.836166e-02 1.426700e-14 1 
    0.621645 1.846551e-02 1.433500e-14 1 
    0.621920 1.672585e-02 1.297300e-14 1 
    0.622195 1.720391e-02 1.333200e-14 1 
    0.622470 1.712613e-02 1.326000e-14 1 
    0.622745 1.816638e-02 1.405300e-14 1 
    0.623020 1.761831e-02 1.361700e-14 1 
    0.623295 1.884986e-02 1.455600e-14 1 
    0.623570 1.761832e-02 1.359300e-14 1 
    0.623845 1.658437e-02 1.278400e-14 1 
    0.624120 1.728066e-02 1.330900e-14 1 
    0.624395 1.755191e-02 1.350600e-14 1 
    0.624670 1.742559e-02 1.339700e-14 1 
    0.624945 1.875321e-02 1.440500e-14 1 
    0.625220 1.900296e-02 1.458400e-14 1 
    0.625495 2.038642e-02 1.563200e-14 1 
    0.625770 2.068629e-02 1.584800e-14 1 
    0.626045 1.848484e-02 1.414900e-14 1 
    0.626320 1.808004e-02 1.382700e-14 1 
    0.626595 1.845975e-02 1.410500e-14 1 
    0.626870 1.772932e-02 1.353500e-14 1 
    0.627145 1.813819e-02 1.383500e-14 1 
    0.627420 1.830500e-02 1.395000e-14 1 
    0.627695 1.764468e-02 1.343500e-14 1 
    0.627970 1.858554e-02 1.413900e-14 1 
    0.628245 1.965697e-02 1.494100e-14 1 
    0.628520 1.925544e-02 1.462300e-14 1 
    0.628795 1.733360e-02 1.315200e-14 1 
    0.629070 1.804657e-02 1.368100e-14 1 
    0.629345 1.687940e-02 1.278500e-14 1 
    0.629620 1.730644e-02 1.309700e-14 1 
    0.629895 1.752523e-02 1.325100e-14 1 
    0.630170 1.822225e-02 1.376600e-14 1 
    0.630445 1.742734e-02 1.315400e-14 1 
    0.630720 1.835485e-02 1.384200e-14 1 
    0.630995 1.704633e-02 1.284400e-14 1 
    0.631270 1.755401e-02 1.321500e-14 1 
    0.631545 1.913678e-02 1.439400e-14 1 
    0.631820 1.856796e-02 1.395400e-14 1 
    0.632095 1.740547e-02 1.306900e-14 1 
    0.632370 1.848967e-02 1.387100e-14 1 
    0.632645 1.796409e-02 1.346500e-14 1 
    0.632920 1.909602e-02 1.430100e-14 1 
    0.633195 1.671502e-02 1.250700e-14 1 
    0.633470 1.682451e-02 1.257800e-14 1 
    0.633745 1.817656e-02 1.357700e-14 1 
    0.634020 1.904990e-02 1.421700e-14 1 
    0.634295 1.883710e-02 1.404600e-14 1 
    0.634570 1.849237e-02 1.377700e-14 1 
    0.634845 1.833913e-02 1.365100e-14 1 
    0.635120 1.935539e-02 1.439500e-14 1 
    0.635395 1.901688e-02 1.413100e-14 1 
    0.635670 1.793156e-02 1.331300e-14 1 
    0.635945 1.858203e-02 1.378400e-14 1 
    0.636220 1.840651e-02 1.364200e-14 1 
    0.636495 1.847644e-02 1.368200e-14 1 
    0.636770 1.831670e-02 1.355200e-14 1 
    0.637045 1.747353e-02 1.291700e-14 1 
    0.637320 1.722190e-02 1.272000e-14 1 
    0.637595 1.807692e-02 1.334000e-14 1 
    0.637870 1.732894e-02 1.277700e-14 1 
    0.638145 1.753936e-02 1.292100e-14 1 
    0.638420 1.791858e-02 1.318900e-14 1 
    0.638695 1.776133e-02 1.306200e-14 1 
    0.638970 1.693148e-02 1.244100e-14 1 
    0.639245 1.703187e-02 1.250400e-14 1 
    0.639520 1.785496e-02 1.309700e-14 1 
    0.639795 1.689882e-02 1.238500e-14 1 
    0.640070 1.777370e-02 1.301500e-14 1 
    0.640345 1.770150e-02 1.295100e-14 1 
    0.640620 1.714900e-02 1.253600e-14 1 
    0.640895 1.912709e-02 1.397000e-14 1 
    0.641170 1.835009e-02 1.339100e-14 1 
    0.641445 1.902141e-02 1.386900e-14 1 
    0.641720 1.957582e-02 1.426100e-14 1 
    0.641995 1.919967e-02 1.397500e-14 1 
    0.642270 1.833198e-02 1.333200e-14 1 
    0.642545 1.878532e-02 1.365000e-14 1 
    0.642820 1.805210e-02 1.310600e-14 1 
    0.643095 1.941441e-02 1.408300e-14 1 
    0.643370 1.872045e-02 1.356800e-14 1 
    0.643645 1.896569e-02 1.373400e-14 1 
    0.643920 1.881743e-02 1.361500e-14 1 
    0.644195 1.993737e-02 1.441300e-14 1 
    0.644470 1.940615e-02 1.401700e-14 1 
    0.644745 1.913172e-02 1.380700e-14 1 
    0.645020 2.105772e-02 1.518400e-14 1 
    0.645295 1.914217e-02 1.379100e-14 1 
    0.645570 1.927379e-02 1.387400e-14 1 
    0.645845 1.834336e-02 1.319300e-14 1 
    0.646120 1.986467e-02 1.427500e-14 1 
    0.646395 1.895679e-02 1.361100e-14 1 
    0.646670 2.180680e-02 1.564400e-14 1 
    0.646945 1.933226e-02 1.385700e-14 1 
    0.647220 1.894098e-02 1.356500e-14 1 
    0.647495 1.824296e-02 1.305400e-14 1 
    0.647770 1.799131e-02 1.286300e-14 1 
    0.648045 1.905089e-02 1.360900e-14 1 
    0.648320 1.861032e-02 1.328300e-14 1 
    0.648595 1.971566e-02 1.406000e-14 1 
    0.648870 2.015622e-02 1.436200e-14 1 
    0.649145 2.045985e-02 1.456600e-14 1 
    0.649420 1.961964e-02 1.395600e-14 1 
    0.649695 2.033273e-02 1.445100e-14 1 
    0.649970 2.071749e-02 1.471200e-14 1 
    0.650245 1.936791e-02 1.374200e-14 1 
    0.650520 1.961986e-02 1.390900e-14 1 
    0.650795 1.973810e-02 1.398100e-14 1 
    0.651070 1.964316e-02 1.390200e-14 1 
    0.651345 1.859913e-02 1.315200e-14 1 
    0.651620 1.974006e-02 1.394700e-14 1 
    0.651895 2.018452e-02 1.424900e-14 1 
    0.652170 1.954088e-02 1.378300e-14 1 
    0.652445 1.897418e-02 1.337200e-14 1 
    0.652720 2.158052e-02 1.519600e-14 1 
    0.652995 2.153901e-02 1.515400e-14 1 
    0.653270 1.992124e-02 1.400400e-14 1 
    0.653545 1.867231e-02 1.311500e-14 1 
    0.653820 1.909983e-02 1.340400e-14 1 
    0.654095 1.986748e-02 1.393100e-14 1 
    0.654370 1.966580e-02 1.377800e-14 1 
    0.654645 2.038660e-02 1.427100e-14 1 
    0.654920 1.967314e-02 1.376000e-14 1 
    0.655195 1.965246e-02 1.373400e-14 1 
    0.655470 1.824971e-02 1.274300e-14 1 
    0.655745 1.775906e-02 1.239000e-14 1 
    0.656020 1.884987e-02 1.314000e-14 1 
    0.656295 1.923753e-02 1.339900e-14 1 
    0.656570 2.034574e-02 1.415900e-14 1 
    0.656845 1.789348e-02 1.244200e-14 1 
    0.657120 1.998257e-02 1.388300e-14 1 
    0.657395 2.019090e-02 1.401600e-14 1 
    0.657670 2.182834e-02 1.514000e-14 1 
    0.657945 2.003711e-02 1.388600e-14 1 
    0.658220 1.881765e-02 1.303000e-14 1 
    0.658495 1.785774e-02 1.235500e-14 1 
    0.658770 2.026388e-02 1.400800e-14 1 
    0.659045 1.887498e-02 1.303700e-14 1 
    0.659320 1.883567e-02 1.299900e-14 1 
    0.659595 1.764046e-02 1.216400e-14 1 
    0.659870 1.909644e-02 1.315700e-14 1 
    0.660145 2.087877e-02 1.437300e-14 1 
    0.660420 2.067373e-02 1.422000e-14 1 
    0.660695 1.997651e-02 1.372900e-14 1 
    0.660970 2.013878e-02 1.382900e-14 1 
    0.661245 2.064525e-02 1.416500e-14 1 
    0.661520 1.923290e-02 1.318500e-14 1 
    0.661795 2.026062e-02 1.387800e-14 1 
    0.662070 2.186131e-02 1.496200e-14 1 
    0.662345 2.106057e-02 1.440200e-14 1 
    0.662620 1.981063e-02 1.353600e-14 1 
    0.662895 1.997941e-02 1.364000e-14 1 
    0.663170 2.039913e-02 1.391500e-14 1 
    0.663445 2.015343e-02 1.373600e-14 1 
    0.663720 1.918630e-02 1.306600e-14 1 
    0.663995 1.926834e-02 1.311100e-14 1 
    0.664270 1.938726e-02 1.318100e-14 1 
    0.664545 1.922372e-02 1.305900e-14 1 
    0.664820 1.843817e-02 1.251500e-14 1 
    0.665095 2.106920e-02 1.428900e-14 1 
    0.665370 2.129175e-02 1.442800e-14 1 
    0.665645 2.093421e-02 1.417400e-14 1 
    0.665920 1.860714e-02 1.258800e-14 1 
    0.666195 1.928528e-02 1.303600e-14 1 
    0.666470 2.068557e-02 1.397100e-14 1 
    0.666745 2.220818e-02 1.498700e-14 1 
    0.667020 2.128328e-02 1.435100e-14 1 
    0.667295 2.000803e-02 1.348000e-14 1 
    0.667570 1.933674e-02 1.301700e-14 1 
    0.667845 2.114864e-02 1.422500e-14 1 
    0.668120 2.162732e-02 1.453500e-14 1 
    0.668395 2.098989e-02 1.409500e-14 1 
    0.668670 2.223824e-02 1.492100e-14 1 
    0.668945 2.350801e-02 1.576000e-14 1 
    0.669220 2.322130e-02 1.555500e-14 1 
    0.669495 2.255461e-02 1.509600e-14 1 
    0.669770 2.373350e-02 1.587200e-14 1 
    0.670045 2.589453e-02 1.730300e-14 1 
    0.670320 2.848446e-02 1.901800e-14 1 
    0.670595 3.083277e-02 2.056900e-14 1 
    0.670870 3.006145e-02 2.003800e-14 1 
    0.671145 2.826934e-02 1.882800e-14 1 
    0.671420 2.516844e-02 1.674900e-14 1 
    0.671695 2.223086e-02 1.478200e-14 1 
    0.671970 2.213618e-02 1.470700e-14 1 
    0.672245 2.338802e-02 1.552600e-14 1 
    0.672520 2.694402e-02 1.787200e-14 1 
    0.672795 2.821991e-02 1.870300e-14 1 
    0.673070 2.909919e-02 1.927000e-14 1 
    0.673345 2.640111e-02 1.746900e-14 1 
    0.673620 2.412209e-02 1.594800e-14 1 
    0.673895 2.390261e-02 1.579000e-14 1 
    0.674170 2.154052e-02 1.421800e-14 1 
    0.674445 1.911693e-02 1.260800e-14 1 
    0.674720 1.935256e-02 1.275300e-14 1 
    0.674995 1.937896e-02 1.276000e-14 1 
    0.675270 2.067913e-02 1.360500e-14 1 
    0.675545 2.037196e-02 1.339200e-14 1 
    0.675820 2.070065e-02 1.359700e-14 1 
    0.676095 2.084701e-02 1.368200e-14 1 
    0.676370 2.083958e-02 1.366600e-14 1 
    0.676645 2.105340e-02 1.379500e-14 1 
    0.676920 2.116827e-02 1.385900e-14 1 
    0.677195 2.127719e-02 1.391900e-14 1 
    0.677470 2.080338e-02 1.359800e-14 1 
    0.677745 2.037166e-02 1.330500e-14 1 
    0.678020 2.090766e-02 1.364400e-14 1 
    0.678295 2.049521e-02 1.336400e-14 1 
    0.678570 2.041668e-02 1.330200e-14 1 
    0.678845 2.031341e-02 1.322400e-14 1 
    0.679120 1.987021e-02 1.292500e-14 1 
    0.679395 1.955396e-02 1.270900e-14 1 
    0.679670 2.087558e-02 1.355700e-14 1 
    0.679945 2.107741e-02 1.367700e-14 1 
    0.680220 1.929764e-02 1.251200e-14 1 
    0.680495 1.941513e-02 1.257800e-14 1 
    0.680770 1.995297e-02 1.291600e-14 1 
    0.681045 2.079006e-02 1.344700e-14 1 
    0.681320 2.150625e-02 1.389900e-14 1 
    0.681595 2.101258e-02 1.356900e-14 1 
    0.681870 2.066378e-02 1.333300e-14 1 
    0.682145 2.112561e-02 1.362000e-14 1 
    0.682420 1.993960e-02 1.284500e-14 1 
    0.682695 2.255169e-02 1.451600e-14 1 
    0.682970 2.048484e-02 1.317500e-14 1 
    0.683912 2.128509e-02 1.365200e-14 0 
    0.685488 2.138487e-02 1.365300e-14 0 
    0.687068 2.047178e-02 1.301000e-14 0 
    0.688652 2.134087e-02 1.350000e-14 0 
    0.690240 2.109796e-02 1.328500e-14 0 
    0.691831 2.164206e-02 1.356500e-14 0 
    0.693426 2.194552e-02 1.369200e-14 0 
    0.695024 2.134957e-02 1.325900e-14 0 
    0.696626 2.169883e-02 1.341400e-14 0 
    0.698233 2.225734e-02 1.369600e-14 0 
    0.699842 2.116008e-02 1.296100e-14 0 
    0.701455 2.140698e-02 1.305200e-14 0 
    0.703072 2.150909e-02 1.305400e-14 0 
    0.704693 2.165970e-02 1.308500e-14 0 
    0.706318 2.186281e-02 1.314700e-14 0 
    0.707946 2.201717e-02 1.317900e-14 0 
    0.709578 2.268775e-02 1.351800e-14 0 
    0.711214 2.263737e-02 1.342600e-14 0 
    0.712853 2.349051e-02 1.386800e-14 0 
    0.714496 2.354617e-02 1.383700e-14 0 
    0.716143 2.280179e-02 1.333800e-14 0 
    0.717794 2.223381e-02 1.294600e-14 0 
    0.719449 2.371675e-02 1.374600e-14 0 
    0.721108 2.489571e-02 1.436300e-14 0 
    0.722770 2.281131e-02 1.310000e-14 0 
    0.724436 2.377903e-02 1.359300e-14 0 
    0.726106 2.255490e-02 1.283400e-14 0 
    0.727780 2.250541e-02 1.274700e-14 0 
    0.729457 2.164436e-02 1.220300e-14 0 
    0.731139 2.210067e-02 1.240300e-14 0 
    0.732825 2.251419e-02 1.257700e-14 0 
    0.734514 2.220627e-02 1.234800e-14 0 
    0.736207 2.246593e-02 1.243500e-14 0 
    0.737904 2.341904e-02 1.290300e-14 0 
    0.739605 2.380247e-02 1.305400e-14 0 
    0.741310 2.353316e-02 1.284700e-14 0 
    0.743019 2.342648e-02 1.273000e-14 0 
    0.744732 2.419832e-02 1.308900e-14 0 
    0.746449 2.528325e-02 1.361300e-14 0 
    0.748170 2.488126e-02 1.333500e-14 0 
    0.749894 2.528848e-02 1.349100e-14 0 
    0.751623 2.576113e-02 1.368000e-14 0 
    0.753356 2.511955e-02 1.327800e-14 0 
    0.755092 2.661145e-02 1.400200e-14 0 
    0.756833 2.661402e-02 1.393900e-14 0 
    0.758578 2.559560e-02 1.334400e-14 0 
    0.760326 2.643631e-02 1.371900e-14 0 
    0.762079 2.674614e-02 1.381600e-14 0 
    0.763836 2.737137e-02 1.407400e-14 0 
    0.765597 2.699951e-02 1.381900e-14 0 
    0.767361 2.769524e-02 1.411000e-14 0 
    0.769130 2.814844e-02 1.427500e-14 0 
    0.770904 2.847654e-02 1.437500e-14 0 
    0.772681 2.802487e-02 1.408200e-14 0 
    0.774462 2.764438e-02 1.382700e-14 0 
    0.776247 2.733009e-02 1.360700e-14 0 
    0.778037 2.702043e-02 1.339100e-14 0 
    0.779830 2.746337e-02 1.354800e-14 0 
    0.781628 2.727654e-02 1.339400e-14 0 
    0.783430 2.641429e-02 1.291100e-14 0 
    0.785236 2.672325e-02 1.300200e-14 0 
    0.787046 2.678878e-02 1.297400e-14 0 
    0.788860 2.685225e-02 1.294500e-14 0 
    0.790679 2.691788e-02 1.291700e-14 0 
    0.792501 2.606649e-02 1.245100e-14 0 
    0.794328 2.729940e-02 1.298000e-14 0 
    0.796159 2.692676e-02 1.274400e-14 0 
    0.797995 2.699379e-02 1.271700e-14 0 
    0.799834 2.839781e-02 1.331700e-14 0 
    0.801678 2.699930e-02 1.260300e-14 0 
    0.803526 2.807949e-02 1.304700e-14 0 
    0.805378 2.814854e-02 1.301900e-14 0 
    0.807235 2.867599e-02 1.320200e-14 0 
    0.809096 2.776967e-02 1.272600e-14 0 
    0.810961 2.796361e-02 1.275600e-14 0 
    0.812831 2.670967e-02 1.212800e-14 0 
    0.814704 2.816481e-02 1.273000e-14 0 
    0.816582 2.882381e-02 1.296800e-14 0 
    0.818465 2.804139e-02 1.255800e-14 0 
    0.820352 2.984430e-02 1.330400e-14 0 
    0.822243 3.047334e-02 1.352200e-14 0 
    0.824138 3.040794e-02 1.343100e-14 0 
    0.826038 2.937923e-02 1.291700e-14 0 
    0.827942 2.845003e-02 1.245100e-14 0 
    0.829851 3.034892e-02 1.322100e-14 0 
    0.831764 3.077496e-02 1.334500e-14 0 
    0.833681 2.986981e-02 1.289300e-14 0 
    0.835603 3.021950e-02 1.298400e-14 0 
    0.837529 2.919689e-02 1.248700e-14 0 
    0.839460 3.100180e-02 1.319800e-14 0 
    0.841395 3.065168e-02 1.298900e-14 0 
    0.843335 3.136927e-02 1.323200e-14 0 
    0.845279 3.240004e-02 1.360400e-14 0 
    0.847227 3.123359e-02 1.305400e-14 0 
    0.849180 3.116382e-02 1.296500e-14 0 
    0.851138 3.074023e-02 1.273000e-14 0 
    0.853100 3.032415e-02 1.250000e-14 0 
    0.855067 3.175583e-02 1.303000e-14 0 
    0.857038 3.103812e-02 1.267700e-14 0 
    0.859014 3.132898e-02 1.273700e-14 0 
    0.860994 3.213582e-02 1.300500e-14 0 
    0.862979 2.992585e-02 1.205500e-14 0 
    0.864968 3.141315e-02 1.259600e-14 0 
    0.866962 3.170597e-02 1.265500e-14 0 
    0.868960 3.171132e-02 1.259900e-14 0 
    0.870964 3.120791e-02 1.234200e-14 0 
    0.872971 3.150178e-02 1.240100e-14 0 
    0.874984 3.186925e-02 1.248800e-14 0 
    0.877001 3.224196e-02 1.257600e-14 0 
    0.879023 3.209976e-02 1.246300e-14 0 
    0.881049 3.115598e-02 1.204100e-14 0 
    0.883080 3.262810e-02 1.255200e-14 0 
    0.885116 3.181772e-02 1.218400e-14 0 
    0.887156 3.152905e-02 1.201800e-14 0 
    0.889201 3.146109e-02 1.193700e-14 0 
    0.891251 3.242183e-02 1.224500e-14 0 
    0.893305 3.356362e-02 1.261800e-14 0 
    0.895365 3.205913e-02 1.199700e-14 0 
    0.897429 3.318966e-02 1.236300e-14 0 
    0.899498 3.327006e-02 1.233600e-14 0 
    0.901571 3.444233e-02 1.271200e-14 0 
    0.903650 3.460680e-02 1.271400e-14 0 
    0.905733 3.453136e-02 1.262800e-14 0 
    0.907820 3.260561e-02 1.186900e-14 0 
    0.909913 3.313974e-02 1.200800e-14 0 
    0.912011 3.383616e-02 1.220400e-14 0 
    0.914113 3.415386e-02 1.226200e-14 0 
    0.916220 3.299914e-02 1.179300e-14 0 
    0.918333 3.262584e-02 1.160600e-14 0 
    0.920450 3.488321e-02 1.235200e-14 0 
    0.922571 3.073740e-02 1.083400e-14 0 
    0.924698 3.628617e-02 1.273100e-14 0 
    0.926830 3.645941e-02 1.273300e-14 0 
    0.928966 3.287370e-02 1.142800e-14 0 
    0.931108 3.333758e-02 1.153600e-14 0 
    0.933254 3.548013e-02 1.222100e-14 0 
    0.935406 3.451813e-02 1.183500e-14 0 
    0.937562 3.524587e-02 1.202900e-14 0 
    0.939723 3.476684e-02 1.181100e-14 0 
    0.941890 3.525561e-02 1.192200e-14 0 
    0.944061 3.422108e-02 1.151900e-14 0 
    0.946237 3.485952e-02 1.168000e-14 0 
    0.948418 3.718819e-02 1.240300e-14 0 
    0.950605 3.535680e-02 1.173800e-14 0 
    0.952796 3.736890e-02 1.234900e-14 0 
    0.954993 3.745935e-02 1.232200e-14 0 
    0.957194 3.703668e-02 1.212700e-14 0 
    0.959401 3.781823e-02 1.232600e-14 0 
    0.961612 3.721908e-02 1.207500e-14 0 
    0.963829 3.853043e-02 1.244300e-14 0 
    0.966051 3.818255e-02 1.227400e-14 0 
    0.968278 3.934949e-02 1.259100e-14 0 
    0.970510 3.962843e-02 1.262200e-14 0 
    0.972747 3.873262e-02 1.228000e-14 0 
    0.974990 3.918396e-02 1.236600e-14 0 
    0.977237 3.918969e-02 1.231100e-14 0 
    0.979490 4.020209e-02 1.257100e-14 0 
    0.981748 3.983827e-02 1.240000e-14 0 
    0.984011 4.021258e-02 1.245900e-14 0 
    0.986279 3.975938e-02 1.226200e-14 0 
    0.988553 3.994945e-02 1.226400e-14 0 
    0.990832 4.069673e-02 1.243600e-14 0 
    0.993116 4.014486e-02 1.221100e-14 0 
    0.995405 3.987435e-02 1.207300e-14 0 
    0.997700 4.015465e-02 1.210200e-14 0 
    1.000000 3.988333e-02 1.196500e-14 0 
    1.002305 4.110216e-02 1.227400e-14 0 
    1.004615 4.091841e-02 1.216300e-14 0 
    1.006931 4.140132e-02 1.225000e-14 0 
    1.009253 4.131068e-02 1.216700e-14 0 
    1.011580 4.141271e-02 1.214100e-14 0 
    1.013912 4.132288e-02 1.205900e-14 0 
    1.016249 4.209882e-02 1.222900e-14 0 
    1.018591 4.239684e-02 1.225900e-14 0 
    1.020939 4.240143e-02 1.220400e-14 0 
    1.025652 4.310239e-02 1.229200e-14 0 
    1.030386 4.291727e-02 1.212700e-14 0 
    1.035142 4.443946e-02 1.244200e-14 0 
    1.039921 4.455515e-02 1.236000e-14 0 
    1.044720 4.550213e-02 1.250700e-14 0 
    1.049542 4.636375e-02 1.262700e-14 0 
    1.051962 4.647452e-02 1.259900e-14 0 
    1.073990 4.674182e-02 1.215700e-14 0 
    1.093956 4.610240e-02 1.155700e-14 0 
    1.114294 4.685164e-02 1.132000e-14 0 
    1.135010 4.578432e-02 1.066200e-14 0 
    1.156113 4.739574e-02 1.063800e-14 0 
    1.174898 4.928436e-02 1.071100e-14 0 
    1.196741 4.996907e-02 1.046700e-14 0 
    1.216186 4.860942e-02 9.859200e-15 0 
    1.235947 5.031748e-02 9.881900e-15 0 
    1.256030 5.148955e-02 9.791300e-15 0 
    1.276439 5.125278e-02 9.437100e-15 0 
    1.297179 5.184653e-02 9.243600e-15 0 
    1.318256 5.268890e-02 9.095800e-15 0 
    1.339676 5.354522e-02 8.950400e-15 0 
    1.358313 5.305400e-02 8.626600e-15 0 
    1.380384 5.342211e-02 8.410900e-15 0 
    1.399587 5.391587e-02 8.257300e-15 0 
    1.419057 5.281055e-02 7.867600e-15 0 
    1.442115 5.160834e-02 7.444600e-15 0 
    1.462177 5.244704e-02 7.359400e-15 0 
    1.482518 5.454062e-02 7.444600e-15 0 
    1.503142 5.391616e-02 7.158800e-15 0 
    1.524053 5.645724e-02 7.291900e-15 0 
    1.541701 5.857568e-02 7.393300e-15 0 
    1.563147 6.162001e-02 7.565600e-15 0 
    1.584892 6.276525e-02 7.496200e-15 0 
    1.603245 6.276561e-02 7.325600e-15 0 
    1.625549 6.204642e-02 7.044300e-15 0 
    1.644372 6.334566e-02 7.028100e-15 0 
    1.667248 6.497123e-02 7.012000e-15 0 
    1.686554 6.587494e-02 6.947700e-15 0 
    1.706082 6.756451e-02 6.963700e-15 0 
    1.725838 6.882063e-02 6.931700e-15 0 
    1.745823 6.945753e-02 6.836600e-15 0 
    1.770110 6.866290e-02 6.574200e-15 0 
    1.790605 6.787667e-02 6.351000e-15 0 
    1.807174 6.572362e-02 6.037300e-15 0 
    1.828101 6.407972e-02 5.752300e-15 0 
    1.849270 6.190407e-02 5.430500e-15 0 
    1.870681 6.147829e-02 5.270400e-15 0 
    1.892343 6.049439e-02 5.068000e-15 0 
    1.909854 5.844092e-02 4.806600e-15 0 
    1.931967 5.830657e-02 4.686400e-15 0 
    1.954339 5.911731e-02 4.643400e-15 0 
    1.972423 5.857595e-02 4.516900e-15 0 
    1.995263 5.763933e-02 4.343500e-15 0 
    2.013724 5.658735e-02 4.186400e-15 0 
    2.032357 5.581098e-02 4.053600e-15 0 
    2.055892 5.632772e-02 3.998000e-15 0 
    2.074913 5.555514e-02 3.871200e-15 0 
    2.094113 5.619774e-02 3.844500e-15 0 
    2.113488 5.619721e-02 3.774300e-15 0 
    2.137962 5.645647e-02 3.705400e-15 0 
    2.157745 5.684809e-02 3.663000e-15 0 
    2.177709 5.684892e-02 3.596200e-15 0 
    2.197860 5.698001e-02 3.538700e-15 0 
    2.218197 5.632708e-02 3.434300e-15 0 
    2.238721 5.645707e-02 3.379400e-15 0 
    2.259436 5.581182e-02 3.279800e-15 0 
    2.280341 5.542632e-02 3.197700e-15 0 
    2.301442 5.517152e-02 3.124900e-15 0 
    2.317393 5.441556e-02 3.039800e-15 0 
    2.338837 4.962710e-02 2.721700e-15 0 
    2.360479 4.985701e-02 2.684400e-15 0 
    2.382319 4.443494e-02 2.348800e-15 0 
    2.404363 4.233783e-02 2.197100e-15 0 
    2.421028 4.352267e-02 2.227600e-15 0 
    2.443431 4.071185e-02 2.045700e-15 0 
    2.460366 3.951055e-02 1.958100e-15 0 
    2.483133 3.933054e-02 1.913600e-15 0 
    2.506110 3.678958e-02 1.757300e-15 0 
    2.523480 3.620180e-02 1.705500e-15 0 
    2.546831 3.088367e-02 1.428400e-15 0 
    2.564484 3.074112e-02 1.402300e-15 0 
    2.588213 3.138410e-02 1.405500e-15 0 
    2.606153 3.152862e-02 1.392600e-15 0 
    2.624220 3.263756e-02 1.421800e-15 0 
    2.648499 3.263869e-02 1.395900e-15 0 
    2.666859 3.301454e-02 1.392600e-15 0 
    2.685344 3.263731e-02 1.357800e-15 0 
    2.710192 3.286461e-02 1.342300e-15 0 
    2.728977 3.271357e-02 1.317800e-15 0 
    2.747895 3.271313e-02 1.299700e-15 0 
    2.766941 3.263737e-02 1.278900e-15 0 
    2.792545 3.256313e-02 1.252700e-15 0 
    2.811900 3.248896e-02 1.232700e-15 0 
    2.831393 3.219007e-02 1.204600e-15 0 
    2.851018 3.219079e-02 1.188100e-15 0 
    2.870782 3.204252e-02 1.166400e-15 0 
    2.890680 3.196739e-02 1.147700e-15 0 
    2.910719 3.182190e-02 1.126800e-15 0 
    2.930893 3.160310e-02 1.103700e-15 0 
    2.951208 3.160144e-02 1.088500e-15 0 
    2.971666 3.145825e-02 1.068700e-15 0 
    2.992263 3.123925e-02 1.046700e-15 0 
    3.013007 3.116853e-02 1.030000e-15 0 
    3.033890 3.116947e-02 1.015900e-15 0 
    3.054922 3.095420e-02 9.950400e-16 0 
    3.076096 3.095424e-02 9.813899e-16 0 
    3.097421 3.088314e-02 9.657000e-16 0 
    3.118889 3.102544e-02 9.568400e-16 0 
    3.140510 3.109709e-02 9.458900e-16 0 
    3.155005 3.102547e-02 9.350600e-16 0 
    3.176873 3.116874e-02 9.264900e-16 0 
    3.198896 3.131279e-02 9.180000e-16 0 
    3.221068 3.131259e-02 9.054000e-16 0 
    3.243397 3.145719e-02 8.971000e-16 0 
    3.258367 3.152952e-02 8.909199e-16 0 
    3.280952 3.182137e-02 8.868300e-16 0 
    3.303696 3.226408e-02 8.868300e-16 0 
    3.318944 3.293969e-02 8.971000e-16 0 
    3.341952 3.497200e-02 9.393800e-16 0 
    3.365115 4.024549e-02 1.066200e-15 0 
    3.380647 4.024452e-02 1.056400e-15 0 
    3.404082 3.497190e-02 9.054000e-16 0 
    3.427677 3.309175e-02 8.449700e-16 0 
    3.443501 3.219010e-02 8.144100e-16 0 
    3.467368 3.182153e-02 7.940400e-16 0 
    3.483372 3.138468e-02 7.759600e-16 0 
    3.507520 3.131282e-02 7.635600e-16 0 
    3.523708 3.102556e-02 7.496200e-16 0 
    3.548136 3.088316e-02 7.359400e-16 0 
    3.564512 3.067040e-02 7.241700e-16 0 
    3.589218 3.059977e-02 7.125900e-16 0 
    3.605788 3.031955e-02 6.995900e-16 0 
    3.630780 3.031946e-02 6.899900e-16 0 
    3.647538 3.004119e-02 6.773900e-16 0 
    3.672823 2.997216e-02 6.665600e-16 0 
    3.689775 2.976570e-02 6.559000e-16 0 
    3.706805 2.956110e-02 6.454200e-16 0 
    3.732502 2.942533e-02 6.336400e-16 0 
    3.749729 2.922281e-02 6.235100e-16 0 
    3.767040 2.888826e-02 6.107200e-16 0 
    3.793150 2.875535e-02 5.995700e-16 0 
    3.810657 2.862304e-02 5.913400e-16 0 
    3.837073 2.842644e-02 5.792200e-16 0 
    3.854783 2.836105e-02 5.725900e-16 0 
    3.872575 2.810107e-02 5.621400e-16 0 
    3.890453 2.790757e-02 5.531500e-16 0 
    3.917418 2.784305e-02 5.443000e-16 0 
    3.935499 2.765151e-02 5.356000e-16 0 
    3.953667 2.733530e-02 5.246200e-16 0 
    3.971915 2.714700e-02 5.162300e-16 0 
    3.999450 2.708428e-02 5.079700e-16 0 
    4.017909 2.689792e-02 4.998500e-16 0 
    4.036454 2.659011e-02 4.896000e-16 0 
    4.055084 2.640695e-02 4.817700e-16 0 
    4.073804 2.610476e-02 4.718900e-16 0 
    4.102040 2.610499e-02 4.654200e-16 0 
    4.120973 2.592480e-02 4.579700e-16 0 
    4.139998 2.568709e-02 4.496100e-16 0 
    4.159106 2.551075e-02 4.424300e-16 0 
    4.178302 2.533477e-02 4.353500e-16 0 
    4.197591 2.521859e-02 4.293800e-16 0 
    4.216965 2.510278e-02 4.234900e-16 0 
    4.246193 2.498739e-02 4.157600e-16 0 
    4.265796 2.487229e-02 4.100500e-16 0 
    4.285485 2.470144e-02 4.035000e-16 0 
    4.305264 2.453147e-02 3.970500e-16 0 
    4.325140 2.447478e-02 3.925000e-16 0 
    4.345102 2.430663e-02 3.862300e-16 0 
    4.365157 2.419489e-02 3.809300e-16 0 
    4.385309 2.353546e-02 3.671500e-16 0 
    4.405549 2.289405e-02 3.538700e-16 0 
    4.425883 2.299944e-02 3.522400e-16 0 
    4.446310 2.247614e-02 3.410700e-16 0 
    4.466837 2.221859e-02 3.340700e-16 0 
    4.487454 2.206572e-02 3.287300e-16 0 
    4.508165 2.166287e-02 3.197700e-16 0 
    4.528977 2.156320e-02 3.153800e-16 0 
    4.549880 2.146460e-02 3.110600e-16 0 
    4.570880 2.117012e-02 3.039800e-16 0 
    4.591982 2.121844e-02 3.018800e-16 0 
    4.613176 2.107284e-02 2.970600e-16 0 
    4.634468 2.092773e-02 2.923100e-16 0 
    4.645151 2.083157e-02 2.896300e-16 0 
    4.666595 2.078335e-02 2.863100e-16 0 
    4.688134 2.049871e-02 2.798000e-16 0 
    4.709772 2.064031e-02 2.791500e-16 0 
    4.731515 2.054551e-02 2.753200e-16 0 
    4.753353 2.049836e-02 2.721700e-16 0 
    4.775292 2.054588e-02 2.703000e-16 0 
    4.797337 2.045140e-02 2.665900e-16 0 
    4.808395 2.026372e-02 2.629300e-16 0 
    4.830588 2.040453e-02 2.623300e-16 0 
    4.852884 2.026362e-02 2.581300e-16 0 
    4.875287 2.026338e-02 2.557600e-16 0 
    4.897789 2.026375e-02 2.534200e-16 0 
    4.920395 2.007759e-02 2.487900e-16 0 
    4.931736 2.017025e-02 2.487900e-16 0 
    4.954504 2.007790e-02 2.453800e-16 0 
    4.977371 1.998536e-02 2.420100e-16 0 
    5.000344 1.998692e-02 2.398100e-16 0 
    5.023429 2.001375e-02 2.379300e-16 0 
    5.035008 2.000387e-02 2.367200e-16 0 
    5.058246 1.998511e-02 2.343300e-16 0 
    5.081593 2.015109e-02 2.341100e-16 0 
    5.105052 2.013168e-02 2.317400e-16 0 
    5.116820 2.012249e-02 2.305700e-16 0 
    5.140436 2.019593e-02 2.292900e-16 0 
    5.164162 2.017744e-02 2.269800e-16 0 
    5.176071 2.016791e-02 2.258300e-16 0 
    5.188002 2.020536e-02 2.252100e-16 0 
    5.199961 2.033558e-02 2.256200e-16 0 
    5.211947 2.037329e-02 2.250000e-16 0 
    5.223961 2.036363e-02 2.238600e-16 0 
    5.236003 2.040096e-02 2.232400e-16 0 
    5.248072 2.043911e-02 2.226300e-16 0 
    5.260175 2.047631e-02 2.220100e-16 0 
    5.272300 2.051429e-02 2.214000e-16 0 
    5.284453 2.059967e-02 2.213000e-16 0 
    5.296634 2.063770e-02 2.206900e-16 0 
    5.308843 2.062773e-02 2.195700e-16 0 
    5.321080 2.066631e-02 2.189700e-16 0 
    5.333352 2.070486e-02 2.183700e-16 0 
    5.345646 2.074232e-02 2.177600e-16 0 
    5.357968 2.078063e-02 2.171600e-16 0 
    5.370318 2.086789e-02 2.170700e-16 0 
    5.382697 2.100284e-02 2.174700e-16 0 
    5.395105 2.104156e-02 2.168700e-16 0 
    5.407541 2.108020e-02 2.162700e-16 0 
    5.420011 2.107080e-02 2.151800e-16 0 
    5.432505 2.115920e-02 2.150900e-16 0 
    5.445027 2.124697e-02 2.149900e-16 0 
    5.457579 2.133512e-02 2.148900e-16 0 
    5.470159 2.137474e-02 2.143000e-16 0 
    5.482768 2.146437e-02 2.142100e-16 0 
    5.495406 2.155337e-02 2.141100e-16 0 
    5.508079 2.164380e-02 2.140200e-16 0 
    5.520776 2.173354e-02 2.139200e-16 0 
    5.533502 2.177465e-02 2.133400e-16 0 
    5.546257 2.186489e-02 2.132400e-16 0 
    5.559041 2.190606e-02 2.126600e-16 0 
    5.571855 2.204753e-02 2.130500e-16 0 
    5.584705 2.213998e-02 2.129600e-16 0 
    5.597578 2.218159e-02 2.123800e-16 0 
    5.610481 2.232594e-02 2.127800e-16 0 
    5.623413 2.241844e-02 2.126800e-16 0 
    5.636376 2.251239e-02 2.125900e-16 0 
    5.649368 2.271097e-02 2.134800e-16 0 
    5.662390 2.285854e-02 2.138800e-16 0 
    5.675448 2.290074e-02 2.132900e-16 0 
    5.688531 2.304959e-02 2.136900e-16 0 
    5.701643 2.325350e-02 2.145900e-16 0 
    5.714786 2.334994e-02 2.144900e-16 0 
    5.727959 2.355614e-02 2.153900e-16 0 
    5.741162 2.370881e-02 2.157900e-16 0 
    5.754402 2.386354e-02 2.162000e-16 0 
    5.767667 2.407348e-02 2.171000e-16 0 
    5.780962 2.428597e-02 2.180100e-16 0 
    5.794287 2.450101e-02 2.189300e-16 0 
    5.807643 2.471640e-02 2.198400e-16 0 
    5.821030 2.487792e-02 2.202600e-16 0 
    5.834448 2.521287e-02 2.222000e-16 0 
    5.847904 2.549459e-02 2.236500e-16 0 
    5.861383 2.577831e-02 2.251000e-16 0 
    5.874894 2.606641e-02 2.265700e-16 0 
    5.888436 2.641787e-02 2.285700e-16 0 
    5.902009 2.671165e-02 2.300500e-16 0 
    5.915614 2.713473e-02 2.326200e-16 0 
    5.929250 2.756465e-02 2.352200e-16 0 
    5.942924 2.793563e-02 2.372900e-16 0 
    5.956623 2.844304e-02 2.404900e-16 0 
    5.970353 2.896047e-02 2.437400e-16 0 
    5.984115 2.955488e-02 2.476000e-16 0 
    5.997909 3.009181e-02 2.509400e-16 0 
    6.011735 3.078005e-02 2.555000e-16 0 
    6.025599 3.141112e-02 2.595400e-16 0 
    6.048437 2.827058e-02 2.318300e-16 3 
    6.079422 3.452744e-02 2.802600e-16 3 
    6.110407 3.859160e-02 3.100800e-16 3 
    6.141393 4.250421e-02 3.380800e-16 3 
    6.172378 4.288720e-02 3.377100e-16 3 
    6.203363 4.523654e-02 3.526600e-16 3 
    6.234349 5.331530e-02 4.115200e-16 3 
    6.265334 7.140116e-02 5.456800e-16 3 
    6.296319 9.993236e-02 7.562300e-16 3 
    6.327305 1.280406e-01 9.594700e-16 3 
    6.358290 1.373065e-01 1.018900e-15 3 
    6.389276 1.250880e-01 9.192500e-16 3 
    6.420261 1.040826e-01 7.575200e-16 3 
    6.451246 8.708687e-02 6.277500e-16 3 
    6.482232 7.703684e-02 5.500100e-16 3 
    6.513217 6.889050e-02 4.871800e-16 3 
    6.544202 6.074665e-02 4.255300e-16 3 
    6.575188 5.398805e-02 3.746300e-16 3 
    6.606173 5.130933e-02 3.527100e-16 3 
    6.637158 4.954660e-02 3.374200e-16 3 
    6.668145 4.813245e-02 3.247500e-16 3 
    6.699129 4.754111e-02 3.178000e-16 3 
    6.730114 5.078865e-02 3.363900e-16 3 
    6.761100 5.065704e-02 3.324500e-16 3 
    6.792085 5.105014e-02 3.319800e-16 3 
    6.823071 5.134939e-02 3.309000e-16 3 
    6.854056 5.080524e-02 3.244400e-16 3 
    6.885041 5.351255e-02 3.386600e-16 3 
    6.916027 5.298766e-02 3.323400e-16 3 
    6.947012 5.021876e-02 3.121700e-16 3 
    6.977998 5.401778e-02 3.328100e-16 3 
    7.008983 5.597726e-02 3.418400e-16 3 
    7.039968 6.138314e-02 3.715600e-16 3 
    7.070954 6.330463e-02 3.798400e-16 3 
    7.101939 6.719961e-02 3.997000e-16 3 
    7.132924 8.899856e-02 5.247700e-16 3 
    7.163910 8.444971e-02 4.936500e-16 3 
    7.194895 7.202794e-02 4.174200e-16 3 
    7.225881 7.342591e-02 4.218800e-16 3 
    7.256866 7.689018e-02 4.380200e-16 3 
    7.287851 7.532276e-02 4.254500e-16 3 
    7.318838 7.912323e-02 4.431400e-16 3 
    7.349822 8.364439e-02 4.645200e-16 3 
    7.380807 8.133496e-02 4.479100e-16 3 
    7.411793 8.932377e-02 4.878000e-16 3 
    7.442778 9.700578e-02 5.253500e-16 3 
    7.473763 1.019709e-01 5.476700e-16 3 
    7.504748 1.136168e-01 6.051900e-16 3 
    7.533706 1.027959e-01 5.433500e-16 3 
    7.535734 1.234083e-01 6.519500e-16 3 
    7.566720 1.352236e-01 7.085300e-16 3 
    7.595799 1.241352e-01 6.454600e-16 3 
    7.597705 1.482035e-01 7.702200e-16 3 
    7.657894 1.507134e-01 7.710000e-16 3 
    7.719988 1.824083e-01 9.181900e-16 3 
    7.782082 1.929508e-01 9.558200e-16 3 
    7.844176 1.908018e-01 9.302700e-16 3 
    7.906271 1.894818e-01 9.093800e-16 3 
    7.968365 1.883532e-01 8.899300e-16 3 
    8.030459 1.773621e-01 8.250900e-16 3 
    8.092554 1.575567e-01 7.217500e-16 3 
    8.154648 1.375982e-01 6.207600e-16 3 
    8.216741 1.190939e-01 5.291900e-16 3 
    8.278836 1.035535e-01 4.532600e-16 3 
    8.340930 9.729055e-02 4.195300e-16 3 
    8.403025 9.232131e-02 3.922400e-16 3 
    8.465119 9.267082e-02 3.879700e-16 3 
    8.527213 9.401353e-02 3.878800e-16 3 
    8.589307 9.479257e-02 3.854600e-16 3 
    8.651402 1.000102e-01 4.008600e-16 3 
    8.713495 1.100634e-01 4.348900e-16 3 
    8.775590 1.113142e-01 4.336300e-16 3 
    8.837684 1.019761e-01 3.916900e-16 3 
    8.899778 8.672271e-02 3.284700e-16 3 
    8.961872 6.991702e-02 2.611600e-16 3 
    9.023966 5.600347e-02 2.063200e-16 3 
    9.086060 4.596195e-02 1.670200e-16 3 
    9.148155 4.090426e-02 1.466300e-16 3 
    9.210249 3.821815e-02 1.351600e-16 3 
    9.272344 3.355084e-02 1.170700e-16 3 
    9.334438 3.007497e-02 1.035500e-16 3 
    9.396532 2.919409e-02 9.919300e-17 3 
    9.458626 2.923706e-02 9.803900e-17 3 
    9.520720 2.773378e-02 9.178900e-17 3 
    9.582815 2.700271e-02 8.821500e-17 3 
    9.644909 2.743348e-02 8.847200e-17 3 
    9.707002 2.673157e-02 8.510900e-17 3 
    9.769098 2.675973e-02 8.411900e-17 3 
    9.831192 2.974250e-02 9.231800e-17 3 
    9.893286 3.121073e-02 9.566300e-17 3 
    9.955380 2.682302e-02 8.119200e-17 3 
   10.017470 2.550321e-02 7.624300e-17 3 
   10.079570 2.502014e-02 7.388000e-17 3 
   10.141659 2.493883e-02 7.274100e-17 3 
   10.203760 2.576750e-02 7.424600e-17 3 
   10.265850 2.624856e-02 7.472000e-17 3 
   10.327949 2.637686e-02 7.418500e-17 3 
   10.390041 2.749562e-02 7.641000e-17 3 
   10.452130 2.736529e-02 7.514700e-17 3 
   10.514230 2.924427e-02 7.936100e-17 3 
   10.576320 2.956272e-02 7.928600e-17 3 
   10.638420 3.305342e-02 8.761600e-17 3 
   10.700510 3.580825e-02 9.382000e-17 3 
   10.762600 4.127922e-02 1.069100e-16 3 
   10.824700 4.256155e-02 1.089700e-16 3 
   10.886791 4.380186e-02 1.108700e-16 3 
   10.948890 4.397532e-02 1.100500e-16 3 
   11.010980 4.243863e-02 1.050100e-16 3 
   11.073080 4.477830e-02 1.095600e-16 3 
   11.135170 5.036969e-02 1.218700e-16 3 
   11.197260 6.087968e-02 1.456700e-16 3 
   11.259360 7.304671e-02 1.728600e-16 3 
   11.321450 8.852635e-02 2.072000e-16 3 
   11.383550 1.302634e-01 3.015700e-16 3 
   11.445640 1.901067e-01 4.353500e-16 3 
   11.507740 2.125559e-01 4.815200e-16 3 
   11.569830 1.877980e-01 4.208800e-16 3 
   11.631920 1.549789e-01 3.436300e-16 3 
   11.694020 1.278796e-01 2.805400e-16 3 
   11.756110 1.075428e-01 2.334400e-16 3 
   11.818209 9.402589e-02 2.019600e-16 3 
   11.880299 8.776179e-02 1.865400e-16 3 
   11.942400 8.349028e-02 1.756200e-16 3 
   12.004490 8.327508e-02 1.733600e-16 3 
   12.066580 8.631793e-02 1.778500e-16 3 
   12.128680 9.122463e-02 1.860400e-16 3 
   12.190770 9.688699e-02 1.955800e-16 3 
   12.252870 1.000285e-01 1.998800e-16 3 
   12.314959 9.877500e-02 1.953900e-16 3 
   12.377051 9.659228e-02 1.891600e-16 3 
   12.439150 9.748144e-02 1.890000e-16 3 
   12.501240 1.027548e-01 1.972500e-16 3 
   12.563340 1.127276e-01 2.142600e-16 3 
   12.625430 1.140783e-01 2.147000e-16 3 
   12.687530 1.183423e-01 2.205500e-16 3 
   12.749620 1.250519e-01 2.307900e-16 3 
   12.811710 1.358860e-01 2.483600e-16 3 
   12.873810 1.464766e-01 2.651400e-16 3 
   12.935900 1.538836e-01 2.758800e-16 3 
   12.998000 1.790849e-01 3.180000e-16 3 
   13.060090 2.434601e-01 4.282100e-16 3 
   13.122180 2.290665e-01 3.990900e-16 3 
   13.184280 1.434753e-01 2.476200e-16 3 
   13.246370 1.001503e-01 1.712300e-16 3 
   13.308470 9.256050e-02 1.567800e-16 3 
   13.370559 8.914161e-02 1.495900e-16 3 
   13.432659 8.940620e-02 1.486500e-16 3 
   13.494750 8.904488e-02 1.466900e-16 3 
   13.556841 8.762395e-02 1.430300e-16 3 
   13.618941 8.716732e-02 1.409900e-16 3 
   13.681030 8.766446e-02 1.405100e-16 3 
   13.743130 8.868246e-02 1.408600e-16 3 
   13.805220 9.020346e-02 1.419900e-16 3 
   13.867320 8.901686e-02 1.388700e-16 3 
   13.929409 9.183367e-02 1.419900e-16 3 
   13.991500 8.776666e-02 1.345000e-16 3 
   14.053600 8.310296e-02 1.262300e-16 3 
   14.115691 8.210541e-02 1.236200e-16 3 
   14.177789 8.191145e-02 1.222500e-16 3 
   14.239880 8.000793e-02 1.183700e-16 3 
   14.301980 8.243229e-02 1.209000e-16 3 
   14.364070 7.856914e-02 1.142400e-16 3 
   14.426159 7.798728e-02 1.124200e-16 3 
   14.488261 8.148695e-02 1.164600e-16 3 
   14.541691 8.319572e-02 1.180300e-16 3 
   14.633380 8.618966e-02 1.207500e-16 3 
   14.725080 7.974932e-02 1.103400e-16 3 
   14.816770 7.291105e-02 9.963400e-17 3 
   14.908459 6.610595e-02 8.922700e-17 3 
   15.000150 6.814186e-02 9.085400e-17 3 
   15.091850 6.324018e-02 8.329700e-17 3 
   15.183541 6.658300e-02 8.664400e-17 3 
   15.275230 7.005502e-02 9.007100e-17 3 
   15.366930 6.144429e-02 7.806000e-17 3 
   15.458620 7.434165e-02 9.332800e-17 3 
   15.550309 7.184803e-02 8.913700e-17 3 
   15.642000 6.271274e-02 7.689400e-17 3 
   15.733700 7.158218e-02 8.674900e-17 3 
   15.825391 8.851490e-02 1.060300e-16 3 
   15.917080 1.047110e-01 1.239900e-16 3 
   16.008780 8.711846e-02 1.019800e-16 3 
   16.100470 8.322597e-02 9.631700e-17 3 
   16.192159 8.161326e-02 9.338400e-17 3 
   16.283859 8.509115e-02 9.627000e-17 3 
   16.375550 8.519311e-02 9.530900e-17 3 
   16.467239 8.704194e-02 9.629600e-17 3 
   16.558930 8.979075e-02 9.824000e-17 3 
   16.650631 9.575991e-02 1.036200e-16 3 
   16.742319 1.204472e-01 1.289100e-16 3 
   16.834009 1.407190e-01 1.489700e-16 3 
   16.925700 1.216582e-01 1.274000e-16 3 
   17.017400 1.162712e-01 1.204500e-16 3 
   17.109091 1.200937e-01 1.230800e-16 3 
   17.200781 1.294911e-01 1.313000e-16 3 
   17.292481 1.335069e-01 1.339400e-16 3 
   17.384170 1.656007e-01 1.643900e-16 3 
   17.475861 1.651634e-01 1.622400e-16 3 
   17.567561 1.304019e-01 1.267600e-16 3 
   17.659250 1.333987e-01 1.283300e-16 3 
   17.750941 1.491559e-01 1.420100e-16 3 
   17.842630 1.289886e-01 1.215500e-16 3 
   17.934330 1.118021e-01 1.042800e-16 3 
   18.026020 1.044880e-01 9.646900e-17 3 
   18.117709 1.182362e-01 1.080600e-16 3 
   18.209409 1.104899e-01 9.996600e-17 3 
   18.301100 1.110104e-01 9.943300e-17 3 
   18.392789 1.115910e-01 9.895900e-17 3 
   18.484489 1.012171e-01 8.887100e-17 3 
   18.576180 1.017521e-01 8.846100e-17 3 
   18.667870 1.044550e-01 8.992100e-17 3 
   18.759559 1.043223e-01 8.893100e-17 3 
   18.851259 1.052227e-01 8.882800e-17 3 
   18.942950 1.321351e-01 1.104700e-16 3 
   19.034639 1.334898e-01 1.105300e-16 3 
   19.126341 2.001140e-01 1.641100e-16 3 
   19.218031 1.545411e-01 1.255300e-16 3 
   19.309719 1.206642e-01 9.708400e-17 3 
   19.401409 1.160813e-01 9.251600e-17 3 
   19.493111 1.059831e-01 8.367500e-17 3 
   19.584800 1.182644e-01 9.249900e-17 3 
   19.676491 1.209617e-01 9.372900e-17 3 
   19.768191 1.155410e-01 8.870000e-17 3 
   19.859880 1.089216e-01 8.284800e-17 3 
   19.951570 1.232184e-01 9.286300e-17 3 
   20.043261 1.228605e-01 9.174800e-17 3 
   20.134961 1.271914e-01 9.411900e-17 3 
   20.226650 1.366588e-01 1.002100e-16 3 
   20.318341 1.318320e-01 9.580000e-17 3 
   20.410041 1.324539e-01 9.538900e-17 3 
   20.555241 1.283539e-01 9.113500e-17 3 
   20.730739 1.494001e-01 1.042900e-16 3 
   20.906339 1.436797e-01 9.861900e-17 3 
   21.082041 1.401951e-01 9.463000e-17 3 
   21.257830 1.571692e-01 1.043400e-16 3 
   21.433709 1.607760e-01 1.049900e-16 3 
   21.609689 1.498348e-01 9.625800e-17 3 
   21.785761 1.643607e-01 1.038900e-16 3 
   21.961930 1.656148e-01 1.030100e-16 3 
   22.138200 1.482421e-01 9.074200e-17 3 
   22.314559 1.612096e-01 9.712600e-17 3 
   22.491020 1.761693e-01 1.044800e-16 3 
   22.667570 1.887941e-01 1.102300e-16 3 
   22.844219 1.817285e-01 1.044700e-16 3 
   23.020969 1.787749e-01 1.012000e-16 3 
   23.197809 1.849940e-01 1.031300e-16 3 
   23.374750 2.042729e-01 1.121600e-16 3 
   23.551791 2.136284e-01 1.155400e-16 3 
   23.728920 2.004312e-01 1.067900e-16 3 
   23.906161 2.045224e-01 1.073600e-16 3 
   24.083481 2.048416e-01 1.059500e-16 3 
   24.260909 2.320817e-01 1.182900e-16 3 
   24.438441 2.320068e-01 1.165400e-16 3 
   24.616061 2.281808e-01 1.129700e-16 3 
   24.793780 2.355241e-01 1.149400e-16 3 
   24.971600 2.451920e-01 1.179600e-16 3 
   25.149509 2.597879e-01 1.232200e-16 3 
   25.327530 2.494303e-01 1.166500e-16 3 
   25.505641 2.553794e-01 1.177700e-16 3 
   25.683861 2.648758e-01 1.204600e-16 3 
   25.862169 2.763472e-01 1.239500e-16 3 
   26.040581 2.856885e-01 1.263900e-16 3 
   26.219091 3.405581e-01 1.486200e-16 3 
   26.397700 3.123230e-01 1.344600e-16 3 
   26.576409 3.124696e-01 1.327200e-16 3 
   26.755222 3.062849e-01 1.283600e-16 3 
   26.934131 3.070819e-01 1.269900e-16 3 
   27.113141 3.696930e-01 1.508700e-16 3 
   27.292250 3.240171e-01 1.305000e-16 3 
   27.471459 3.287894e-01 1.307000e-16 3 
   27.650781 3.285084e-01 1.289000e-16 3 
   27.830191 3.437834e-01 1.331600e-16 3 
   28.009700 3.549274e-01 1.357200e-16 3 
   28.189319 3.604476e-01 1.360800e-16 3 
   28.369041 3.670704e-01 1.368300e-16 3 
   28.548850 3.724175e-01 1.370800e-16 3 
   28.728769 3.889012e-01 1.413600e-16 3 
   28.908791 3.964926e-01 1.423300e-16 3 
   29.088922 3.969080e-01 1.407200e-16 3 
   29.269150 4.042688e-01 1.415700e-16 3 
   29.449472 5.139161e-01 1.777700e-16 3 
   29.629909 4.257383e-01 1.454800e-16 3 
   29.810441 4.196264e-01 1.416600e-16 3 
   29.991078 4.305438e-01 1.436000e-16 3 
   30.171819 4.249764e-01 1.400500e-16 3 
   30.352659 4.477133e-01 1.457900e-16 3 
   30.533609 4.588166e-01 1.476400e-16 3 
   30.714659 4.755002e-01 1.512100e-16 3 
   30.895809 4.757800e-01 1.495300e-16 3 
   31.077069 4.898779e-01 1.521700e-16 3 
   31.258441 4.922906e-01 1.511500e-16 3 
   31.439909 4.980561e-01 1.511600e-16 3 
   31.621481 5.028588e-01 1.508700e-16 3 
   31.803150 5.247353e-01 1.556400e-16 3 
   31.984941 5.321835e-01 1.560600e-16 3 
   32.166822 5.512560e-01 1.598300e-16 3 
   32.348819 5.590115e-01 1.602600e-16 3 
   32.530909 5.859586e-01 1.661100e-16 3 
   32.713119 5.752403e-01 1.612600e-16 3 
   32.895431 6.000657e-01 1.663600e-16 3 
   33.077838 5.413092e-01 1.484200e-16 3 
   33.260359 6.074058e-01 1.647200e-16 3 
   33.442991 6.485051e-01 1.739500e-16 3 
   33.625728 6.714035e-01 1.781400e-16 3 
   33.808572 6.967466e-01 1.828700e-16 3 
   33.991519 8.220837e-01 2.134500e-16 3 
   34.174569 1.183512e+00 3.040100e-16 3 
   34.357731 7.861035e-01 1.997800e-16 3 
   34.541013 7.128662e-01 1.792500e-16 3 
   34.724381 7.117735e-01 1.770900e-16 3 
   34.907872 7.559131e-01 1.861000e-16 3 
