# NGC 3773       
# 
# An Atlas of Galaxy Spectral Energy Distributions from the Ultraviolet to the Mid-Infrared
# Brown et al. (2014)
# http://dx.doi.org/10.5072/03/529D3551F0117
# http://dx.doi.org/10.17909/t9-5bxk-dh29
# 
# The Spectral Energy Distributions of Active Galactic Nuclei
# Brown et al. (2019)
# http://dx.doi.org/10.17909/t9-3dbt-8734
# 
# Column 1: Observed wavelength (um)
# Column 2: f_nu (Jy)
# Column 3: f_lam (erg/s/cm2/A)
# Column 4: Source (0 = model, 1 = Optical Spectrun, 2 = Akari, 3 = Spitzer IRS)
# 
    0.010233 8.154102e-11 2.336100e-19 0 
    0.010423 9.713046e-11 2.682200e-19 0 
    0.010641 1.194926e-10 3.165900e-19 0 
    0.010839 1.490558e-10 3.806200e-19 0 
    0.011041 2.149731e-10 5.290400e-19 0 
    0.011429 3.001825e-10 6.894300e-19 0 
    0.011830 3.975015e-10 8.521000e-19 0 
    0.012134 1.372073e-09 2.795700e-18 0 
    0.012531 1.727181e-09 3.299800e-18 0 
    0.012735 1.889562e-09 3.495300e-18 0 
    0.012853 2.010865e-09 3.651700e-18 0 
    0.013152 2.266493e-09 3.930900e-18 0 
    0.013243 2.650590e-09 4.534100e-18 0 
    0.013459 2.860214e-09 4.736900e-18 0 
    0.013740 3.608612e-09 5.734400e-18 0 
    0.014060 4.030308e-09 6.116300e-18 0 
    0.014355 1.005465e-08 1.463800e-17 0 
    0.014757 2.346171e-08 3.232100e-17 0 
    0.015136 2.590570e-08 3.392300e-17 0 
    0.015560 2.899956e-08 3.593300e-17 0 
    0.015959 3.246274e-08 3.823800e-17 0 
    0.016255 3.510318e-08 3.985600e-17 0 
    0.016672 3.947711e-08 4.260800e-17 0 
    0.017061 4.338902e-08 4.471900e-17 0 
    0.017338 4.659798e-08 4.650400e-17 0 
    0.017742 5.097734e-08 4.858400e-17 0 
    0.018072 5.462338e-08 5.017500e-17 0 
    0.018239 5.706469e-08 5.146200e-17 0 
    0.018664 6.214125e-08 5.351700e-17 0 
    0.019143 6.876883e-08 5.629800e-17 0 
    0.019454 7.351674e-08 5.827600e-17 0 
    0.019861 7.931788e-08 6.032400e-17 0 
    0.020277 8.597562e-08 6.273200e-17 0 
    0.020559 9.065057e-08 6.434100e-17 0 
    0.021086 9.535752e-08 6.434100e-17 0 
    0.021677 1.099940e-07 7.022500e-17 0 
    0.022080 1.181325e-07 7.269300e-17 0 
    0.022387 1.228453e-07 7.353400e-17 0 
    0.022751 1.316346e-07 7.629400e-17 0 
    0.023067 2.043389e-07 1.152100e-16 0 
    0.023496 3.478175e-07 1.890100e-16 0 
    0.024099 4.419404e-07 2.282900e-16 0 
    0.024660 4.328770e-07 2.135500e-16 0 
    0.025293 4.735537e-07 2.220700e-16 0 
    0.025763 4.086599e-07 1.847100e-16 0 
    0.026062 4.779500e-07 2.111000e-16 0 
    0.026485 5.121091e-07 2.190200e-16 0 
    0.026977 5.240346e-07 2.160200e-16 0 
    0.027479 5.350103e-07 2.125600e-16 0 
    0.027990 5.462405e-07 2.091700e-16 0 
    0.028510 5.602227e-07 2.067700e-16 0 
    0.029107 5.512562e-07 1.952000e-16 0 
    0.029717 5.759285e-07 1.956500e-16 0 
    0.030200 5.772605e-07 1.898800e-16 0 
    0.030903 6.058491e-07 1.903200e-16 0 
    0.031915 6.476729e-07 1.907600e-16 0 
    0.032885 6.797827e-07 1.885800e-16 0 
    0.033884 7.069008e-07 1.847100e-16 0 
    0.034914 7.385439e-07 1.817600e-16 0 
    0.035810 8.079271e-07 1.890100e-16 0 
    0.036728 9.448467e-07 2.101300e-16 0 
    0.037584 1.012474e-06 2.150300e-16 0 
    0.038637 1.019495e-06 2.048800e-16 0 
    0.039628 1.313307e-06 2.508900e-16 0 
    0.040644 1.630680e-06 2.961400e-16 0 
    0.041495 1.812863e-06 3.158600e-16 0 
    0.042364 1.907057e-06 3.187800e-16 0 
    0.043152 2.048180e-06 3.299800e-16 0 
    0.044259 2.596402e-06 3.976400e-16 0 
    0.045290 2.994866e-06 4.380200e-16 0 
    0.046132 3.071646e-06 4.330000e-16 0 
    0.047206 3.534773e-06 4.758700e-16 0 
    0.048195 4.348823e-06 5.616800e-16 0 
    0.049204 4.348822e-06 5.388800e-16 0 
    0.050119 5.719712e-06 6.831100e-16 0 
    0.050816 5.551011e-06 6.449000e-16 0 
    0.051404 8.757170e-06 9.942400e-16 0 
    0.052119 9.191359e-06 1.015100e-15 0 
    0.053211 9.668322e-06 1.024400e-15 0 
    0.054200 9.148887e-06 9.343100e-16 0 
    0.055208 9.985607e-06 9.828600e-16 0 
    0.056234 1.391080e-05 1.319700e-15 0 
    0.057148 1.676383e-05 1.539900e-15 0 
    0.058210 1.800372e-05 1.594000e-15 0 
    0.059156 2.015440e-05 1.727800e-15 0 
    0.060256 1.911488e-05 1.579400e-15 0 
    0.061235 2.001603e-05 1.601400e-15 0 
    0.062230 2.700087e-05 2.091700e-15 0 
    0.063241 2.781999e-05 2.086800e-15 0 
    0.064269 3.261171e-05 2.368600e-15 0 
    0.065163 3.399096e-05 2.401500e-15 0 
    0.066069 3.360264e-05 2.309400e-15 0 
    0.066681 3.902715e-05 2.633200e-15 0 
    0.067764 4.368791e-05 2.854200e-15 0 
    0.068707 4.077227e-05 2.591100e-15 0 
    0.069663 4.970213e-05 3.072500e-15 0 
    0.070795 4.429713e-05 2.651500e-15 0 
    0.071779 5.839359e-05 3.400100e-15 0 
    0.072778 6.242617e-05 3.535800e-15 0 
    0.073790 6.627792e-05 3.651700e-15 0 
    0.074817 6.844912e-05 3.668500e-15 0 
    0.075683 7.167533e-05 3.754000e-15 0 
    0.076736 6.876489e-05 3.503400e-15 0 
    0.077804 8.023662e-05 3.976400e-15 0 
    0.078705 7.859139e-05 3.806200e-15 0 
    0.079799 8.797651e-05 4.144700e-15 0 
    0.080724 9.405285e-05 4.330000e-15 0 
    0.081846 9.916633e-05 4.441100e-15 0 
    0.082794 1.055281e-04 4.618400e-15 0 
    0.083753 8.961342e-05 3.832600e-15 0 
    0.084723 1.128164e-04 4.715100e-15 0 
    0.085704 1.159779e-04 4.736900e-15 0 
    0.086696 1.248440e-04 4.983000e-15 0 
    0.087700 1.307288e-04 5.099100e-15 0 
    0.088716 1.365747e-04 5.205800e-15 0 
    0.089743 1.426812e-04 5.314800e-15 0 
    0.090782 1.456690e-04 5.302600e-15 0 
    0.091833 1.518331e-04 5.401200e-15 0 
    0.092897 4.220573e-04 1.467200e-14 0 
    0.093756 7.470780e-04 2.549700e-14 0 
    0.094842 1.175887e-03 3.921800e-14 0 
    0.095719 1.511354e-03 4.948700e-14 0 
    0.096828 1.723340e-03 5.514300e-14 0 
    0.097724 5.276682e-04 1.657600e-14 0 
    0.098855 1.511353e-03 4.639700e-14 0 
    0.099770 1.546561e-03 4.661100e-14 0 
    0.100925 2.100731e-03 6.187200e-14 0 
    0.101859 2.105555e-03 6.088200e-14 0 
    0.102802 1.195023e-03 3.392300e-14 0 
    0.103753 1.731284e-03 4.824900e-14 0 
    0.104954 2.807811e-03 7.647000e-14 0 
    0.105925 2.782063e-03 7.438600e-14 0 
    0.106905 2.330041e-03 6.116300e-14 0 
    0.107895 2.700051e-03 6.958100e-14 0 
    0.108893 2.298099e-03 5.814200e-14 0 
    0.109901 2.886496e-03 7.169500e-14 0 
    0.110918 2.820828e-03 6.878500e-14 0 
    0.111944 2.782109e-03 6.660300e-14 0 
    0.112980 2.531452e-03 5.949600e-14 0 
    0.113763 3.107207e-03 7.202600e-14 0 
    0.114815 2.933367e-03 6.675600e-14 0 
    0.115878 3.078750e-03 6.878500e-14 0 
    0.116950 3.157679e-03 6.926100e-14 0 
    0.117761 2.245820e-03 4.858400e-14 0 
    0.118850 3.121508e-03 6.629600e-14 0 
    0.119950 2.456799e-03 5.122600e-14 0 
    0.120781 1.996958e-03 4.106700e-14 0 
    0.121899 1.490642e-03 3.009500e-14 0 
    0.123027 2.485273e-03 4.926000e-14 0 
    0.123880 3.360267e-03 6.568900e-14 0 
    0.125026 3.642244e-03 6.990200e-14 0 
    0.125893 3.559379e-03 6.737400e-14 0 
    0.127057 3.291279e-03 6.116300e-14 0 
    0.127938 3.975274e-03 7.286000e-14 0 
    0.128825 4.153064e-03 7.507400e-14 0 
    0.130017 3.518599e-03 6.244400e-14 0 
    0.130918 3.534856e-03 6.187200e-14 0 
    0.131826 4.230292e-03 7.302800e-14 0 
    0.133045 4.114944e-03 6.974100e-14 0 
    0.133968 3.813948e-03 6.375200e-14 0 
    0.134896 4.348763e-03 7.169500e-14 0 
    0.135831 4.269406e-03 6.942100e-14 0 
    0.137088 3.966163e-03 6.331300e-14 0 
    0.138038 4.114944e-03 6.478700e-14 0 
    0.138995 4.162603e-03 6.463800e-14 0 
    0.139959 3.494396e-03 5.351700e-14 0 
    0.140929 3.567562e-03 5.388800e-14 0 
    0.141906 4.030618e-03 6.004700e-14 0 
    0.142889 4.067868e-03 5.977100e-14 0 
    0.143880 4.162649e-03 6.032400e-14 0 
    0.144544 4.338773e-03 6.230000e-14 0 
    0.145211 4.409272e-03 6.273200e-14 0 
    0.145881 4.308889e-03 6.074200e-14 0 
    0.146893 4.086717e-03 5.681900e-14 0 
    0.147911 4.134003e-03 5.668800e-14 0 
    0.148936 4.230242e-03 5.721200e-14 0 
    0.149969 4.299022e-03 5.734400e-14 0 
    0.151008 4.143532e-03 5.451200e-14 0 
    0.151705 3.796380e-03 4.948700e-14 0 
    0.152055 4.002891e-03 5.193900e-14 0 
    0.153109 3.966135e-03 5.075600e-14 0 
    0.154170 3.510512e-03 4.430900e-14 0 
    0.154882 3.575796e-03 4.471900e-14 0 
    0.155955 3.494337e-03 4.310100e-14 0 
    0.157036 3.727076e-03 4.534100e-14 0 
    0.158125 4.002896e-03 4.802800e-14 0 
    0.158855 4.162667e-03 4.948700e-14 0 
    0.159956 4.269438e-03 5.006000e-14 0 
    0.161065 4.210895e-03 4.869600e-14 0 
    0.162181 4.230260e-03 4.824900e-14 0 
    0.162930 4.115013e-03 4.650400e-14 0 
    0.164059 4.368900e-03 4.869600e-14 0 
    0.165196 4.450043e-03 4.892000e-14 0 
    0.165959 4.259614e-03 4.639700e-14 0 
    0.167109 4.564223e-03 4.903300e-14 0 
    0.167880 4.181803e-03 4.451300e-14 0 
    0.168267 4.692066e-03 4.971500e-14 0 
    0.169044 4.812463e-03 5.052300e-14 0 
    0.170216 4.617118e-03 4.780700e-14 0 
    0.171002 4.501660e-03 4.618400e-14 0 
    0.172187 4.338840e-03 4.390300e-14 0 
    0.172982 4.318853e-03 4.330000e-14 0 
    0.174181 4.606475e-03 4.555000e-14 0 
    0.174985 4.543256e-03 4.451300e-14 0 
    0.176198 4.790357e-03 4.629000e-14 0 
    0.177011 4.522381e-03 4.330000e-14 0 
    0.178238 4.606474e-03 4.350000e-14 0 
    0.179061 4.713772e-03 4.410500e-14 0 
    0.179887 4.935877e-03 4.576000e-14 0 
    0.181134 4.970097e-03 4.544500e-14 0 
    0.181970 4.670600e-03 4.231500e-14 0 
    0.183231 4.801361e-03 4.290300e-14 0 
    0.184077 4.681348e-03 4.144700e-14 0 
    0.184927 4.389085e-03 3.850300e-14 0 
    0.186209 4.450150e-03 3.850300e-14 0 
    0.187068 4.574706e-03 3.921800e-14 0 
    0.187932 4.868175e-03 4.135100e-14 0 
    0.189234 4.564280e-03 3.823800e-14 0 
    0.190108 4.419448e-03 3.668500e-14 0 
    0.190985 4.692057e-03 3.859100e-14 0 
    0.192309 4.574766e-03 3.711000e-14 0 
    0.193197 4.481000e-03 3.601600e-14 0 
    0.194089 4.670645e-03 3.719600e-14 0 
    0.194984 4.857023e-03 3.832600e-14 0 
    0.196336 4.585264e-03 3.568500e-14 0 
    0.197242 4.970168e-03 3.832600e-14 0 
    0.198153 5.132932e-03 3.921800e-14 0 
    0.199067 4.913303e-03 3.719600e-14 0 
    0.199986 4.823592e-03 3.618200e-14 0 
    0.201372 4.993005e-03 3.693900e-14 0 
    0.202302 4.913315e-03 3.601600e-14 0 
    0.203236 5.109413e-03 3.711000e-14 0 
    0.204174 4.879466e-03 3.511500e-14 0 
    0.205116 5.039312e-03 3.593300e-14 0 
    0.206063 4.681289e-03 3.307400e-14 0 
    0.207014 4.834735e-03 3.384500e-14 0 
    0.207970 5.252609e-03 3.643300e-14 0 
    0.208449 5.027713e-03 3.471300e-14 0 
    0.209411 5.216311e-03 3.568500e-14 0 
    0.210378 5.004649e-03 3.392300e-14 0 
    0.211349 5.085944e-03 3.415800e-14 0 
    0.212324 5.168592e-03 3.439500e-14 0 
    0.213304 5.240377e-03 3.455300e-14 0 
    0.214289 5.016122e-03 3.277100e-14 0 
    0.215278 5.085858e-03 3.292200e-14 0 
    0.216272 5.264678e-03 3.376700e-14 0 
    0.217270 5.156653e-03 3.277100e-14 0 
    0.218273 5.168483e-03 3.254500e-14 0 
    0.219281 5.109423e-03 3.187800e-14 0 
    0.220293 5.325573e-03 3.292200e-14 0 
    0.221309 5.240448e-03 3.209900e-14 0 
    0.222331 5.074265e-03 3.079600e-14 0 
    0.223357 4.993159e-03 3.002600e-14 0 
    0.224388 5.228341e-03 3.115200e-14 0 
    0.225424 5.109377e-03 3.016400e-14 0 
    0.226464 4.970120e-03 2.907300e-14 0 
    0.226986 5.062444e-03 2.947700e-14 0 
    0.228034 5.168578e-03 2.981900e-14 0 
    0.229087 5.264705e-03 3.009500e-14 0 
    0.230144 5.027734e-03 2.847700e-14 0 
    0.231207 5.098698e-03 2.861400e-14 0 
    0.232274 4.960634e-03 2.758400e-14 0 
    0.233346 4.222988e-03 2.326700e-14 0 
    0.234423 4.783025e-03 2.611100e-14 0 
    0.235505 4.707481e-03 2.546300e-14 0 
    0.236048 4.941131e-03 2.660400e-14 0 
    0.237137 4.697973e-03 2.506300e-14 0 
    0.238232 4.797268e-03 2.535800e-14 0 
    0.239332 4.571693e-03 2.394400e-14 0 
    0.240436 4.798957e-03 2.490400e-14 0 
    0.241546 4.690701e-03 2.411900e-14 0 
    0.242103 4.756320e-03 2.434400e-14 0 
    0.243220 4.970087e-03 2.520500e-14 0 
    0.244343 4.846730e-03 2.435400e-14 0 
    0.245471 5.052868e-03 2.515700e-14 0 
    0.246037 4.995485e-03 2.475700e-14 0 
    0.247172 4.984863e-03 2.447800e-14 0 
    0.248313 4.883626e-03 2.376100e-14 0 
    0.249460 4.975520e-03 2.398600e-14 0 
    0.250035 4.527726e-03 2.172700e-14 0 
    0.251189 5.116447e-03 2.432700e-14 0 
    0.252348 4.742850e-03 2.234400e-14 0 
    0.253513 4.765749e-03 2.224600e-14 0 
    0.254097 4.810329e-03 2.235100e-14 0 
    0.255270 4.767308e-03 2.194800e-14 0 
    0.256448 5.015940e-03 2.288100e-14 0 
    0.257632 4.959484e-03 2.241600e-14 0 
    0.258226 5.146192e-03 2.315300e-14 0 
    0.259418 5.135487e-03 2.289300e-14 0 
    0.260615 5.101032e-03 2.253100e-14 0 
    0.261216 4.985616e-03 2.192000e-14 0 
    0.262422 4.952334e-03 2.157400e-14 0 
    0.263633 5.127421e-03 2.213200e-14 0 
    0.264241 5.235351e-03 2.249400e-14 0 
    0.265461 5.546658e-03 2.361300e-14 0 
    0.266072 5.624372e-03 2.383400e-14 0 
    0.267301 5.274426e-03 2.214600e-14 0 
    0.268534 5.460930e-03 2.271900e-14 0 
    0.269154 5.474101e-03 2.266900e-14 0 
    0.270396 5.301496e-03 2.175300e-14 0 
    0.271644 5.426059e-03 2.206000e-14 0 
    0.272270 5.230432e-03 2.116700e-14 0 
    0.273527 5.255647e-03 2.107400e-14 0 
    0.274157 5.415928e-03 2.161700e-14 0 
    0.275423 4.974756e-03 1.967400e-14 0 
    0.276694 5.068499e-03 1.986100e-14 0 
    0.277332 5.199065e-03 2.027900e-14 0 
    0.278612 5.395172e-03 2.085100e-14 0 
    0.279254 5.188716e-03 1.996100e-14 0 
    0.280543 4.530486e-03 1.726900e-14 0 
    0.281190 4.755666e-03 1.804400e-14 0 
    0.282488 5.411202e-03 2.034300e-14 0 
    0.283139 5.576464e-03 2.086800e-14 0 
    0.284446 5.425523e-03 2.011700e-14 0 
    0.285759 5.364672e-03 1.970900e-14 0 
    0.286418 5.219084e-03 1.908600e-14 0 
    0.287740 5.593583e-03 2.026800e-14 0 
    0.288403 5.607191e-03 2.022400e-14 0 
    0.289734 5.621290e-03 2.008900e-14 0 
    0.290402 5.609009e-03 1.995300e-14 0 
    0.291743 5.942941e-03 2.094700e-14 0 
    0.293765 5.809573e-03 2.019600e-14 0 
    0.295801 5.771675e-03 1.978900e-14 0 
    0.297852 5.867368e-03 1.984100e-14 0 
    0.299916 5.896496e-03 1.966600e-14 0 
    0.301995 5.966976e-03 1.962800e-14 0 
    0.304089 5.996687e-03 1.945500e-14 0 
    0.306196 6.040385e-03 1.932800e-14 0 
    0.308319 6.098454e-03 1.924600e-14 0 
    0.309742 6.113943e-03 1.911800e-14 0 
    0.311889 6.173055e-03 1.903800e-14 0 
    0.314051 6.132691e-03 1.865400e-14 0 
    0.316228 6.177342e-03 1.853200e-14 0 
    0.317687 6.207563e-03 1.845200e-14 0 
    0.319890 6.012888e-03 1.762800e-14 0 
    0.322107 6.197853e-03 1.792100e-14 0 
    0.324340 6.045288e-03 1.724000e-14 0 
    0.325837 6.331610e-03 1.789100e-14 0 
    0.328095 6.526596e-03 1.818900e-14 0 
    0.330370 6.544294e-03 1.798800e-14 0 
    0.331894 6.531009e-03 1.778700e-14 0 
    0.333426 6.638875e-03 1.791500e-14 0 
    0.334195 6.670278e-03 1.791700e-14 0 
    0.334966 6.489402e-03 1.735100e-14 0 
    0.335738 6.687302e-03 1.779800e-14 0 
    0.336512 6.476215e-03 1.715700e-14 0 
    0.337287 6.551963e-03 1.727800e-14 0 
    0.338065 6.492698e-03 1.704300e-14 0 
    0.338844 6.345839e-03 1.658100e-14 0 
    0.339625 6.554680e-03 1.704800e-14 0 
    0.340408 6.801243e-03 1.760800e-14 0 
    0.341193 7.041414e-03 1.814600e-14 0 
    0.341979 6.602587e-03 1.693700e-14 0 
    0.342768 6.680084e-03 1.705700e-14 0 
    0.343558 6.979632e-03 1.774000e-14 0 
    0.344350 7.159675e-03 1.811400e-14 0 
    0.345144 6.933436e-03 1.746100e-14 0 
    0.345939 6.592031e-03 1.652500e-14 0 
    0.346737 6.623281e-03 1.652700e-14 0 
    0.347536 6.428785e-03 1.596800e-14 0 
    0.348337 6.857657e-03 1.695500e-14 0 
    0.349140 6.445192e-03 1.586200e-14 0 
    0.349945 6.781101e-03 1.661200e-14 0 
    0.350752 6.766483e-03 1.650000e-14 0 
    0.351560 6.877207e-03 1.669300e-14 0 
    0.352371 6.783979e-03 1.639100e-14 0 
    0.353183 6.991162e-03 1.681400e-14 0 
    0.353997 6.600699e-03 1.580200e-14 0 
    0.354813 7.009261e-03 1.670300e-14 0 
    0.355631 7.173572e-03 1.701600e-14 0 
    0.356451 7.257514e-03 1.713600e-14 0 
    0.357273 7.175295e-03 1.686400e-14 0 
    0.358096 6.728372e-03 1.574100e-14 0 
    0.358922 6.637064e-03 1.545600e-14 0 
    0.359749 6.397630e-03 1.483000e-14 0 
    0.360579 6.638679e-03 1.531800e-14 0 
    0.361410 7.230097e-03 1.660600e-14 0 
    0.362243 6.874178e-03 1.571600e-14 0 
    0.363078 7.116388e-03 1.619500e-14 0 
    0.363500 6.811418e-03 1.546500e-14 1 
    0.363775 7.765256e-03 1.760400e-14 1 
    0.364050 7.885678e-03 1.785000e-14 1 
    0.364325 6.799012e-03 1.536700e-14 1 
    0.364600 7.111038e-03 1.604800e-14 1 
    0.364875 7.310375e-03 1.647300e-14 1 
    0.365150 7.097397e-03 1.596900e-14 1 
    0.365425 6.952745e-03 1.562000e-14 1 
    0.365700 7.458484e-03 1.673100e-14 1 
    0.365975 7.330411e-03 1.641900e-14 1 
    0.366250 6.547775e-03 1.464400e-14 1 
    0.366525 6.657919e-03 1.486800e-14 1 
    0.366800 7.116836e-03 1.586900e-14 1 
    0.367075 7.436525e-03 1.655700e-14 1 
    0.367350 7.818323e-03 1.738100e-14 1 
    0.367625 7.111495e-03 1.578600e-14 1 
    0.367900 7.336894e-03 1.626200e-14 1 
    0.368175 7.622587e-03 1.687000e-14 1 
    0.368450 7.391882e-03 1.633500e-14 1 
    0.368725 7.469993e-03 1.648300e-14 1 
    0.369000 7.369941e-03 1.623800e-14 1 
    0.369275 7.274566e-03 1.600400e-14 1 
    0.369550 7.927271e-03 1.741400e-14 1 
    0.369825 7.558395e-03 1.657900e-14 1 
    0.370100 7.153696e-03 1.566800e-14 1 
    0.370375 7.232463e-03 1.581700e-14 1 
    0.370650 7.624669e-03 1.665000e-14 1 
    0.370925 7.419061e-03 1.617700e-14 1 
    0.371200 7.500339e-03 1.633000e-14 1 
    0.371475 7.261227e-03 1.578600e-14 1 
    0.371750 6.563948e-03 1.424900e-14 1 
    0.372025 7.094517e-03 1.537800e-14 1 
    0.372300 7.486641e-03 1.620400e-14 1 
    0.372575 8.227858e-03 1.778200e-14 1 
    0.372850 8.587551e-03 1.853200e-14 1 
    0.373125 1.061338e-02 2.287000e-14 1 
    0.373400 1.841141e-02 3.961500e-14 1 
    0.373675 3.091475e-02 6.642000e-14 1 
    0.373950 3.983722e-02 8.546400e-14 1 
    0.374225 3.582335e-02 7.674000e-14 1 
    0.374500 2.393745e-02 5.120300e-14 1 
    0.374775 1.388176e-02 2.965000e-14 1 
    0.375050 9.500815e-03 2.026300e-14 1 
    0.375325 8.678930e-03 1.848300e-14 1 
    0.375600 7.745037e-03 1.647000e-14 1 
    0.375875 7.776633e-03 1.651300e-14 1 
    0.376150 6.878243e-03 1.458400e-14 1 
    0.376425 8.093191e-03 1.713500e-14 1 
    0.376700 7.609779e-03 1.608800e-14 1 
    0.376975 7.640315e-03 1.612900e-14 1 
    0.377250 7.792835e-03 1.642700e-14 1 
    0.377525 8.204221e-03 1.726900e-14 1 
    0.377800 8.109604e-03 1.704500e-14 1 
    0.378075 7.962750e-03 1.671200e-14 1 
    0.378350 7.919942e-03 1.659800e-14 1 
    0.378625 8.705108e-03 1.821700e-14 1 
    0.378900 8.919228e-03 1.863800e-14 1 
    0.379175 9.383629e-03 1.958000e-14 1 
    0.379450 9.236465e-03 1.924500e-14 1 
    0.379725 8.999926e-03 1.872500e-14 1 
    0.380000 8.964352e-03 1.862400e-14 1 
    0.380275 8.393111e-03 1.741200e-14 1 
    0.380550 8.878328e-03 1.839200e-14 1 
    0.380825 8.746136e-03 1.809200e-14 1 
    0.381100 8.212196e-03 1.696300e-14 1 
    0.381375 9.342054e-03 1.926900e-14 1 
    0.381650 9.371067e-03 1.930100e-14 1 
    0.381925 9.150704e-03 1.882000e-14 1 
    0.382200 8.872707e-03 1.822200e-14 1 
    0.382475 8.956673e-03 1.836800e-14 1 
    0.382750 9.379263e-03 1.920700e-14 1 
    0.383025 9.214250e-03 1.884200e-14 1 
    0.383300 8.880757e-03 1.813400e-14 1 
    0.383575 9.053877e-03 1.846100e-14 1 
    0.383850 8.308548e-03 1.691700e-14 1 
    0.384125 8.113394e-03 1.649600e-14 1 
    0.384400 8.155060e-03 1.655700e-14 1 
    0.384675 7.822444e-03 1.585900e-14 1 
    0.384950 7.739287e-03 1.566800e-14 1 
    0.385225 8.472059e-03 1.712700e-14 1 
    0.385500 8.599579e-03 1.736000e-14 1 
    0.385775 9.741911e-03 1.963800e-14 1 
    0.386050 9.207855e-03 1.853500e-14 1 
    0.386325 9.634392e-03 1.936600e-14 1 
    0.386600 9.941054e-03 1.995400e-14 1 
    0.386875 9.767113e-03 1.957700e-14 1 
    0.387150 9.910904e-03 1.983700e-14 1 
    0.387425 1.050887e-02 2.100400e-14 1 
    0.387700 1.059544e-02 2.114700e-14 1 
    0.387975 1.103044e-02 2.198400e-14 1 
    0.388250 1.106367e-02 2.201900e-14 1 
    0.388525 1.074575e-02 2.135600e-14 1 
    0.388800 9.855483e-03 1.955900e-14 1 
    0.389075 9.909293e-03 1.963800e-14 1 
    0.389350 9.509960e-03 1.882000e-14 1 
    0.389625 9.392339e-03 1.856100e-14 1 
    0.389900 1.087667e-02 2.146400e-14 1 
    0.390175 1.040638e-02 2.050700e-14 1 
    0.390450 1.038904e-02 2.044400e-14 1 
    0.390725 9.994536e-03 1.964000e-14 1 
    0.391000 8.824801e-03 1.731700e-14 1 
    0.391275 1.025438e-02 2.009400e-14 1 
    0.391550 1.002094e-02 1.960900e-14 1 
    0.391825 1.069212e-02 2.089300e-14 1 
    0.392100 9.960971e-03 1.943700e-14 1 
    0.392375 1.044041e-02 2.034400e-14 1 
    0.392650 1.062824e-02 2.068100e-14 1 
    0.392925 1.020724e-02 1.983400e-14 1 
    0.393200 1.010713e-02 1.961200e-14 1 
    0.393475 1.011404e-02 1.959800e-14 1 
    0.393750 9.165909e-03 1.773600e-14 1 
    0.394025 9.096949e-03 1.757800e-14 1 
    0.394300 8.079905e-03 1.559100e-14 1 
    0.394575 8.114014e-03 1.563500e-14 1 
    0.394850 8.627348e-03 1.660100e-14 1 
    0.395125 9.032801e-03 1.735700e-14 1 
    0.395400 9.447175e-03 1.812800e-14 1 
    0.395675 9.983227e-03 1.913000e-14 1 
    0.395950 9.978295e-03 1.909400e-14 1 
    0.396225 1.011462e-02 1.932800e-14 1 
    0.396500 9.552216e-03 1.822800e-14 1 
    0.396775 9.884530e-03 1.883600e-14 1 
    0.397050 9.719042e-03 1.849500e-14 1 
    0.397325 9.100515e-03 1.729400e-14 1 
    0.397600 8.686285e-03 1.648400e-14 1 
    0.397875 8.612294e-03 1.632100e-14 1 
    0.398150 1.019570e-02 1.929500e-14 1 
    0.398425 1.002618e-02 1.894800e-14 1 
    0.398700 9.490013e-03 1.791000e-14 1 
    0.398975 9.377887e-03 1.767400e-14 1 
    0.399250 9.910996e-03 1.865300e-14 1 
    0.399525 1.041149e-02 1.956800e-14 1 
    0.399800 1.084408e-02 2.035300e-14 1 
    0.400075 1.070055e-02 2.005600e-14 1 
    0.400350 1.144026e-02 2.141300e-14 1 
    0.400625 1.117404e-02 2.088600e-14 1 
    0.400900 1.134475e-02 2.117600e-14 1 
    0.401175 1.103200e-02 2.056400e-14 1 
    0.401450 1.158970e-02 2.157400e-14 1 
    0.401725 1.197462e-02 2.226000e-14 1 
    0.402000 1.163118e-02 2.159200e-14 1 
    0.402275 1.149984e-02 2.131900e-14 1 
    0.402550 1.208219e-02 2.236800e-14 1 
    0.402825 1.183853e-02 2.188700e-14 1 
    0.403100 1.170196e-02 2.160500e-14 1 
    0.403375 1.191427e-02 2.196700e-14 1 
    0.403650 1.175129e-02 2.163700e-14 1 
    0.403925 1.159328e-02 2.131700e-14 1 
    0.404200 1.098224e-02 2.016600e-14 1 
    0.404475 1.131403e-02 2.074700e-14 1 
    0.404750 1.175045e-02 2.151800e-14 1 
    0.405025 1.221645e-02 2.234100e-14 1 
    0.405300 1.180376e-02 2.155700e-14 1 
    0.405575 1.157688e-02 2.111400e-14 1 
    0.405850 1.159808e-02 2.112400e-14 1 
    0.406125 1.149175e-02 2.090200e-14 1 
    0.406400 1.173909e-02 2.132300e-14 1 
    0.406675 1.239392e-02 2.248200e-14 1 
    0.406950 1.192766e-02 2.160700e-14 1 
    0.407225 1.155463e-02 2.090300e-14 1 
    0.407500 1.100510e-02 1.988200e-14 1 
    0.407775 1.134587e-02 2.047000e-14 1 
    0.408050 1.183072e-02 2.131600e-14 1 
    0.408325 1.184667e-02 2.131600e-14 1 
    0.408600 1.148087e-02 2.063000e-14 1 
    0.408875 1.168301e-02 2.096500e-14 1 
    0.409150 1.144595e-02 2.051200e-14 1 
    0.409425 1.154795e-02 2.066700e-14 1 
    0.409700 1.156235e-02 2.066500e-14 1 
    0.409975 1.191572e-02 2.126800e-14 1 
    0.410250 1.140772e-02 2.033400e-14 1 
    0.410525 1.108258e-02 1.972800e-14 1 
    0.410800 1.159864e-02 2.061900e-14 1 
    0.411075 1.245177e-02 2.210600e-14 1 
    0.411350 1.340360e-02 2.376400e-14 1 
    0.411625 1.314478e-02 2.327400e-14 1 
    0.411900 1.196963e-02 2.116500e-14 1 
    0.412175 1.130663e-02 1.996600e-14 1 
    0.412450 1.109320e-02 1.956300e-14 1 
    0.412725 1.147366e-02 2.020700e-14 1 
    0.413000 1.189207e-02 2.091600e-14 1 
    0.413275 1.180031e-02 2.072700e-14 1 
    0.413550 1.152186e-02 2.021100e-14 1 
    0.413825 1.176324e-02 2.060700e-14 1 
    0.414100 1.198065e-02 2.096000e-14 1 
    0.414375 1.134809e-02 1.982700e-14 1 
    0.414650 1.152822e-02 2.011500e-14 1 
    0.414925 1.210189e-02 2.108800e-14 1 
    0.415200 1.212426e-02 2.109900e-14 1 
    0.415475 1.186586e-02 2.062200e-14 1 
    0.415750 1.185277e-02 2.057200e-14 1 
    0.416025 1.223826e-02 2.121300e-14 1 
    0.416300 1.222152e-02 2.115600e-14 1 
    0.416575 1.213471e-02 2.097800e-14 1 
    0.416850 1.199376e-02 2.070700e-14 1 
    0.417125 1.193710e-02 2.058200e-14 1 
    0.417400 1.165086e-02 2.006200e-14 1 
    0.417675 1.213782e-02 2.087300e-14 1 
    0.417950 1.237449e-02 2.125200e-14 1 
    0.418225 1.195874e-02 2.051100e-14 1 
    0.418500 1.132295e-02 1.939500e-14 1 
    0.418775 1.153133e-02 1.972600e-14 1 
    0.419050 1.163662e-02 1.988000e-14 1 
    0.419325 1.152706e-02 1.966700e-14 1 
    0.419600 1.170357e-02 1.994200e-14 1 
    0.419875 1.235240e-02 2.102000e-14 1 
    0.420150 1.225797e-02 2.083200e-14 1 
    0.420425 1.176437e-02 1.996700e-14 1 
    0.420700 1.159806e-02 1.965900e-14 1 
    0.420975 1.218092e-02 2.062000e-14 1 
    0.421250 1.207558e-02 2.041500e-14 1 
    0.421525 1.204160e-02 2.033100e-14 1 
    0.421800 1.235325e-02 2.083000e-14 1 
    0.422075 1.239430e-02 2.087200e-14 1 
    0.422350 1.224159e-02 2.058800e-14 1 
    0.422625 1.192294e-02 2.002600e-14 1 
    0.422900 1.206007e-02 2.023000e-14 1 
    0.423175 1.179342e-02 1.975700e-14 1 
    0.423450 1.215183e-02 2.033100e-14 1 
    0.423725 1.155658e-02 1.931000e-14 1 
    0.424000 1.201443e-02 2.004900e-14 1 
    0.424275 1.165620e-02 1.942600e-14 1 
    0.424550 1.193327e-02 1.986200e-14 1 
    0.424825 1.210876e-02 2.012800e-14 1 
    0.425100 1.231719e-02 2.044800e-14 1 
    0.425375 1.245799e-02 2.065500e-14 1 
    0.425650 1.220294e-02 2.020600e-14 1 
    0.425925 1.252469e-02 2.071200e-14 1 
    0.426200 1.182639e-02 1.953200e-14 1 
    0.426475 1.217935e-02 2.008900e-14 1 
    0.426750 1.226427e-02 2.020300e-14 1 
    0.427025 1.209104e-02 1.989200e-14 1 
    0.427300 1.223991e-02 2.011100e-14 1 
    0.427575 1.258292e-02 2.064800e-14 1 
    0.427850 1.228486e-02 2.013300e-14 1 
    0.428125 1.237948e-02 2.026200e-14 1 
    0.428400 1.201854e-02 1.964600e-14 1 
    0.428675 1.224530e-02 1.999100e-14 1 
    0.428950 1.183476e-02 1.929600e-14 1 
    0.429225 1.200408e-02 1.954700e-14 1 
    0.429500 1.225436e-02 1.992900e-14 1 
    0.429775 1.223804e-02 1.987700e-14 1 
    0.430050 1.221795e-02 1.981900e-14 1 
    0.430325 1.181014e-02 1.913300e-14 1 
    0.430600 1.196430e-02 1.935800e-14 1 
    0.430875 1.188305e-02 1.920200e-14 1 
    0.431150 1.149174e-02 1.854600e-14 1 
    0.431425 1.161932e-02 1.872800e-14 1 
    0.431700 1.101789e-02 1.773600e-14 1 
    0.431975 1.149844e-02 1.848600e-14 1 
    0.432250 1.131753e-02 1.817200e-14 1 
    0.432525 1.168426e-02 1.873700e-14 1 
    0.432800 1.206376e-02 1.932100e-14 1 
    0.433075 1.206472e-02 1.929800e-14 1 
    0.433350 1.231166e-02 1.966800e-14 1 
    0.433625 1.260933e-02 2.011800e-14 1 
    0.433900 1.147752e-02 1.828900e-14 1 
    0.434175 1.163974e-02 1.852400e-14 1 
    0.434450 1.207099e-02 1.918600e-14 1 
    0.434725 1.260724e-02 2.001300e-14 1 
    0.435000 1.512475e-02 2.397900e-14 1 
    0.435275 1.851193e-02 2.931200e-14 1 
    0.435550 1.898809e-02 3.002800e-14 1 
    0.435825 1.553484e-02 2.453600e-14 1 
    0.436100 1.332170e-02 2.101400e-14 1 
    0.436375 1.176942e-02 1.854200e-14 1 
    0.436650 1.259267e-02 1.981400e-14 1 
    0.436925 1.244754e-02 1.956100e-14 1 
    0.437200 1.262186e-02 1.981000e-14 1 
    0.437475 1.294588e-02 2.029300e-14 1 
    0.437750 1.301773e-02 2.038000e-14 1 
    0.438025 1.303409e-02 2.038000e-14 1 
    0.438300 1.305366e-02 2.038500e-14 1 
    0.438575 1.228206e-02 1.915600e-14 1 
    0.438850 1.252537e-02 1.951100e-14 1 
    0.439125 1.249158e-02 1.943400e-14 1 
    0.439400 1.290045e-02 2.004500e-14 1 
    0.439675 1.225611e-02 1.902000e-14 1 
    0.439950 1.200499e-02 1.860700e-14 1 
    0.440225 1.198124e-02 1.854700e-14 1 
    0.440500 1.222260e-02 1.889700e-14 1 
    0.440775 1.270479e-02 1.961800e-14 1 
    0.441050 1.303837e-02 2.010800e-14 1 
    0.441325 1.269236e-02 1.955000e-14 1 
    0.441600 1.258988e-02 1.936800e-14 1 
    0.441875 1.219944e-02 1.874400e-14 1 
    0.442150 1.153495e-02 1.770100e-14 1 
    0.442425 1.270743e-02 1.947600e-14 1 
    0.442700 1.346863e-02 2.061700e-14 1 
    0.442975 1.272531e-02 1.945500e-14 1 
    0.443250 1.317073e-02 2.011100e-14 1 
    0.443525 1.311561e-02 2.000200e-14 1 
    0.443800 1.298416e-02 1.977700e-14 1 
    0.444075 1.284446e-02 1.954000e-14 1 
    0.444350 1.290579e-02 1.960900e-14 1 
    0.444625 1.307860e-02 1.984700e-14 1 
    0.444900 1.319310e-02 1.999600e-14 1 
    0.445175 1.329859e-02 2.013100e-14 1 
    0.445450 1.302731e-02 1.969600e-14 1 
    0.445725 1.311293e-02 1.980100e-14 1 
    0.446000 1.341755e-02 2.023600e-14 1 
    0.446275 1.350314e-02 2.034000e-14 1 
    0.446550 1.357030e-02 2.041600e-14 1 
    0.446825 1.308856e-02 1.966700e-14 1 
    0.447100 1.363707e-02 2.046600e-14 1 
    0.447375 1.293266e-02 1.938500e-14 1 
    0.447650 1.269875e-02 1.901100e-14 1 
    0.447925 1.368410e-02 2.046100e-14 1 
    0.448200 1.402969e-02 2.095200e-14 1 
    0.448475 1.368957e-02 2.041900e-14 1 
    0.448750 1.417960e-02 2.112400e-14 1 
    0.449025 1.422185e-02 2.116100e-14 1 
    0.449300 1.407845e-02 2.092200e-14 1 
    0.449575 1.386999e-02 2.058700e-14 1 
    0.449850 1.366841e-02 2.026300e-14 1 
    0.450125 1.389044e-02 2.056700e-14 1 
    0.450400 1.334144e-02 1.973000e-14 1 
    0.450675 1.378900e-02 2.036700e-14 1 
    0.450950 1.391971e-02 2.053500e-14 1 
    0.451225 1.416202e-02 2.086700e-14 1 
    0.451500 1.364179e-02 2.007600e-14 1 
    0.451775 1.418704e-02 2.085300e-14 1 
    0.452050 1.432011e-02 2.102300e-14 1 
    0.452325 1.466558e-02 2.150400e-14 1 
    0.452600 1.461035e-02 2.139700e-14 1 
    0.452875 1.386447e-02 2.028000e-14 1 
    0.453150 1.392307e-02 2.034100e-14 1 
    0.453425 1.443409e-02 2.106200e-14 1 
    0.453700 1.385122e-02 2.018700e-14 1 
    0.453975 1.377734e-02 2.005500e-14 1 
    0.454250 1.369361e-02 1.990900e-14 1 
    0.454525 1.353115e-02 1.964900e-14 1 
    0.454800 1.396880e-02 2.026000e-14 1 
    0.455075 1.341757e-02 1.943700e-14 1 
    0.455350 1.433712e-02 2.074400e-14 1 
    0.455625 1.372820e-02 1.983900e-14 1 
    0.455900 1.435931e-02 2.072600e-14 1 
    0.456175 1.413178e-02 2.037300e-14 1 
    0.456450 1.396617e-02 2.011000e-14 1 
    0.456725 1.378762e-02 1.982900e-14 1 
    0.457000 1.381397e-02 1.984300e-14 1 
    0.457275 1.465376e-02 2.102400e-14 1 
    0.457550 1.452763e-02 2.081800e-14 1 
    0.457825 1.451366e-02 2.077300e-14 1 
    0.458100 1.450382e-02 2.073400e-14 1 
    0.458375 1.508013e-02 2.153200e-14 1 
    0.458650 1.484860e-02 2.117600e-14 1 
    0.458925 1.440096e-02 2.051300e-14 1 
    0.459200 1.446391e-02 2.057800e-14 1 
    0.459475 1.440523e-02 2.047000e-14 1 
    0.459750 1.444573e-02 2.050300e-14 1 
    0.460025 1.416393e-02 2.007900e-14 1 
    0.460300 1.408623e-02 1.994500e-14 1 
    0.460575 1.411438e-02 1.996100e-14 1 
    0.460850 1.460485e-02 2.063000e-14 1 
    0.461125 1.452447e-02 2.049200e-14 1 
    0.461400 1.431472e-02 2.017200e-14 1 
    0.461675 1.432397e-02 2.016100e-14 1 
    0.461950 1.498337e-02 2.106400e-14 1 
    0.462225 1.492501e-02 2.095700e-14 1 
    0.462500 1.480231e-02 2.076000e-14 1 
    0.462775 1.477209e-02 2.069300e-14 1 
    0.463050 1.524064e-02 2.132400e-14 1 
    0.463325 1.515499e-02 2.117900e-14 1 
    0.463600 1.498242e-02 2.091300e-14 1 
    0.463875 1.481801e-02 2.065900e-14 1 
    0.464150 1.454619e-02 2.025600e-14 1 
    0.464425 1.521553e-02 2.116300e-14 1 
    0.464700 1.501113e-02 2.085400e-14 1 
    0.464975 1.527465e-02 2.119500e-14 1 
    0.465250 1.532375e-02 2.123800e-14 1 
    0.465525 1.562721e-02 2.163300e-14 1 
    0.465800 1.489207e-02 2.059100e-14 1 
    0.466075 1.468954e-02 2.028700e-14 1 
    0.466350 1.480257e-02 2.041900e-14 1 
    0.466625 1.543261e-02 2.126300e-14 1 
    0.466900 1.522263e-02 2.094900e-14 1 
    0.467175 1.516637e-02 2.084700e-14 1 
    0.467450 1.532480e-02 2.104000e-14 1 
    0.467725 1.491478e-02 2.045300e-14 1 
    0.468000 1.469140e-02 2.012300e-14 1 
    0.468275 1.473425e-02 2.015800e-14 1 
    0.468550 1.483499e-02 2.027200e-14 1 
    0.468825 1.521507e-02 2.076700e-14 1 
    0.469100 1.509869e-02 2.058400e-14 1 
    0.469375 1.523170e-02 2.074100e-14 1 
    0.469650 1.497972e-02 2.037400e-14 1 
    0.469925 1.513418e-02 2.056000e-14 1 
    0.470200 1.512316e-02 2.052100e-14 1 
    0.470475 1.490696e-02 2.020400e-14 1 
    0.470750 1.494730e-02 2.023500e-14 1 
    0.471025 1.503206e-02 2.032600e-14 1 
    0.471300 1.482231e-02 2.001900e-14 1 
    0.471575 1.454533e-02 1.962200e-14 1 
    0.471850 1.496380e-02 2.016300e-14 1 
    0.472125 1.501839e-02 2.021300e-14 1 
    0.472400 1.508499e-02 2.027900e-14 1 
    0.472675 1.513980e-02 2.032900e-14 1 
    0.472950 1.485172e-02 1.991900e-14 1 
    0.473225 1.544751e-02 2.069400e-14 1 
    0.473500 1.464788e-02 1.960000e-14 1 
    0.473775 1.517443e-02 2.028100e-14 1 
    0.474050 1.481676e-02 1.978000e-14 1 
    0.474325 1.488271e-02 1.984500e-14 1 
    0.474600 1.496003e-02 1.992500e-14 1 
    0.474875 1.478419e-02 1.966800e-14 1 
    0.475150 1.472531e-02 1.956700e-14 1 
    0.475425 1.548298e-02 2.055000e-14 1 
    0.475700 1.500909e-02 1.989800e-14 1 
    0.475975 1.537383e-02 2.035800e-14 1 
    0.476250 1.574619e-02 2.082700e-14 1 
    0.476525 1.547145e-02 2.044000e-14 1 
    0.476800 1.573787e-02 2.076800e-14 1 
    0.477075 1.488811e-02 1.962400e-14 1 
    0.477350 1.521517e-02 2.003200e-14 1 
    0.477625 1.472095e-02 1.935900e-14 1 
    0.477900 1.476683e-02 1.939700e-14 1 
    0.478175 1.512071e-02 1.983900e-14 1 
    0.478450 1.462305e-02 1.916400e-14 1 
    0.478725 1.526170e-02 1.997800e-14 1 
    0.479000 1.484101e-02 1.940500e-14 1 
    0.479275 1.538637e-02 2.009500e-14 1 
    0.479550 1.544083e-02 2.014300e-14 1 
    0.479825 1.492057e-02 1.944200e-14 1 
    0.480100 1.513898e-02 1.970400e-14 1 
    0.480375 1.522402e-02 1.979200e-14 1 
    0.480650 1.542935e-02 2.003600e-14 1 
    0.480925 1.531209e-02 1.986100e-14 1 
    0.481200 1.480012e-02 1.917500e-14 1 
    0.481475 1.491132e-02 1.929700e-14 1 
    0.481750 1.494383e-02 1.931700e-14 1 
    0.482025 1.532568e-02 1.978800e-14 1 
    0.482300 1.547654e-02 1.996000e-14 1 
    0.482575 1.526830e-02 1.966900e-14 1 
    0.482850 1.560822e-02 2.008400e-14 1 
    0.483125 1.566413e-02 2.013300e-14 1 
    0.483400 1.539533e-02 1.976500e-14 1 
    0.483675 1.516019e-02 1.944100e-14 1 
    0.483950 1.566146e-02 2.006100e-14 1 
    0.484225 1.509152e-02 1.930900e-14 1 
    0.484500 1.504920e-02 1.923300e-14 1 
    0.484775 1.537493e-02 1.962700e-14 1 
    0.485050 1.496810e-02 1.908600e-14 1 
    0.485325 1.535566e-02 1.955800e-14 1 
    0.485600 1.510896e-02 1.922200e-14 1 
    0.485875 1.486876e-02 1.889500e-14 1 
    0.486150 1.469967e-02 1.865900e-14 1 
    0.486425 1.473681e-02 1.868500e-14 1 
    0.486700 1.549254e-02 1.962100e-14 1 
    0.486975 1.836527e-02 2.323300e-14 1 
    0.487250 2.559149e-02 3.233800e-14 1 
    0.487525 3.435436e-02 4.336200e-14 1 
    0.487800 3.679561e-02 4.639100e-14 1 
    0.488075 2.870041e-02 3.614400e-14 1 
    0.488350 1.965043e-02 2.471900e-14 1 
    0.488625 1.543468e-02 1.939400e-14 1 
    0.488900 1.421949e-02 1.784700e-14 1 
    0.489175 1.457529e-02 1.827300e-14 1 
    0.489450 1.457890e-02 1.825700e-14 1 
    0.489725 1.434267e-02 1.794100e-14 1 
    0.490000 1.471173e-02 1.838200e-14 1 
    0.490275 1.487167e-02 1.856100e-14 1 
    0.490550 1.471670e-02 1.834700e-14 1 
    0.490825 1.509697e-02 1.880000e-14 1 
    0.491100 1.576508e-02 1.961000e-14 1 
    0.491375 1.603304e-02 1.992100e-14 1 
    0.491650 1.539110e-02 1.910200e-14 1 
    0.491925 1.525345e-02 1.891000e-14 1 
    0.492200 1.524628e-02 1.888000e-14 1 
    0.492475 1.541693e-02 1.907000e-14 1 
    0.492750 1.539125e-02 1.901700e-14 1 
    0.493025 1.517590e-02 1.873000e-14 1 
    0.493300 1.509793e-02 1.861300e-14 1 
    0.493575 1.506848e-02 1.855600e-14 1 
    0.493850 1.580556e-02 1.944200e-14 1 
    0.494125 1.643926e-02 2.019900e-14 1 
    0.494400 1.650889e-02 2.026200e-14 1 
    0.494675 1.638371e-02 2.008600e-14 1 
    0.494950 1.553880e-02 1.902900e-14 1 
    0.495225 1.527730e-02 1.868800e-14 1 
    0.495500 1.568056e-02 1.916000e-14 1 
    0.495775 1.555869e-02 1.899000e-14 1 
    0.496050 1.554971e-02 1.895800e-14 1 
    0.496325 1.622221e-02 1.975600e-14 1 
    0.496600 1.683781e-02 2.048300e-14 1 
    0.496875 1.866367e-02 2.267900e-14 1 
    0.497150 2.315213e-02 2.810200e-14 1 
    0.497425 2.641415e-02 3.202600e-14 1 
    0.497700 2.560942e-02 3.101600e-14 1 
    0.497975 2.146011e-02 2.596200e-14 1 
    0.498250 1.767562e-02 2.136000e-14 1 
    0.498525 1.638291e-02 1.977600e-14 1 
    0.498800 1.620195e-02 1.953600e-14 1 
    0.499075 1.637093e-02 1.971800e-14 1 
    0.499350 1.604237e-02 1.930100e-14 1 
    0.499625 1.598433e-02 1.921000e-14 1 
    0.499900 1.624100e-02 1.949700e-14 1 
    0.500175 1.638730e-02 1.965100e-14 1 
    0.500450 1.612565e-02 1.931600e-14 1 
    0.500725 1.611162e-02 1.927800e-14 1 
    0.501000 1.617618e-02 1.933400e-14 1 
    0.501275 1.695196e-02 2.023900e-14 1 
    0.501550 2.024158e-02 2.414000e-14 1 
    0.501825 3.050816e-02 3.634400e-14 1 
    0.502100 4.445105e-02 5.289600e-14 1 
    0.502375 4.939510e-02 5.871500e-14 1 
    0.502650 3.937912e-02 4.675800e-14 1 
    0.502925 2.549317e-02 3.023700e-14 1 
    0.503200 1.858563e-02 2.202000e-14 1 
    0.503475 1.727092e-02 2.044000e-14 1 
    0.503750 1.829385e-02 2.162700e-14 1 
    0.504025 1.732053e-02 2.045400e-14 1 
    0.504300 1.615855e-02 1.906100e-14 1 
    0.504575 1.584096e-02 1.866600e-14 1 
    0.504850 1.589731e-02 1.871200e-14 1 
    0.505125 1.607963e-02 1.890600e-14 1 
    0.505400 1.566632e-02 1.840000e-14 1 
    0.505675 1.563309e-02 1.834100e-14 1 
    0.505950 1.598032e-02 1.872800e-14 1 
    0.506225 1.593363e-02 1.865300e-14 1 
    0.506500 1.605270e-02 1.877200e-14 1 
    0.506775 1.638774e-02 1.914300e-14 1 
    0.507050 1.615443e-02 1.885000e-14 1 
    0.507325 1.671417e-02 1.948200e-14 1 
    0.507600 1.615686e-02 1.881200e-14 1 
    0.507875 1.622768e-02 1.887400e-14 1 
    0.508150 1.628485e-02 1.892000e-14 1 
    0.508425 1.617668e-02 1.877400e-14 1 
    0.508700 1.602684e-02 1.858000e-14 1 
    0.508975 1.615211e-02 1.870500e-14 1 
    0.509250 1.570450e-02 1.816700e-14 1 
    0.509525 1.576387e-02 1.821600e-14 1 
    0.509800 1.571851e-02 1.814400e-14 1 
    0.510075 1.580399e-02 1.822300e-14 1 
    0.510350 1.597470e-02 1.840000e-14 1 
    0.510625 1.586329e-02 1.825200e-14 1 
    0.510900 1.598218e-02 1.836900e-14 1 
    0.511175 1.597239e-02 1.833800e-14 1 
    0.511450 1.575241e-02 1.806600e-14 1 
    0.511725 1.592735e-02 1.824700e-14 1 
    0.512000 1.619438e-02 1.853300e-14 1 
    0.512275 1.608844e-02 1.839200e-14 1 
    0.512550 1.576595e-02 1.800400e-14 1 
    0.512825 1.600817e-02 1.826100e-14 1 
    0.513100 1.655013e-02 1.885900e-14 1 
    0.513375 1.623140e-02 1.847600e-14 1 
    0.513650 1.564725e-02 1.779200e-14 1 
    0.513925 1.526255e-02 1.733600e-14 1 
    0.514200 1.560498e-02 1.770600e-14 1 
    0.514475 1.583608e-02 1.794900e-14 1 
    0.514750 1.596959e-02 1.808100e-14 1 
    0.515025 1.560736e-02 1.765200e-14 1 
    0.515300 1.550808e-02 1.752100e-14 1 
    0.515575 1.601551e-02 1.807500e-14 1 
    0.515850 1.575763e-02 1.776500e-14 1 
    0.516125 1.573270e-02 1.771800e-14 1 
    0.516400 1.569791e-02 1.766000e-14 1 
    0.516675 1.562654e-02 1.756100e-14 1 
    0.516950 1.559864e-02 1.751100e-14 1 
    0.517225 1.596302e-02 1.790100e-14 1 
    0.517500 1.630940e-02 1.827000e-14 1 
    0.517775 1.609171e-02 1.800700e-14 1 
    0.518050 1.561231e-02 1.745200e-14 1 
    0.518325 1.481396e-02 1.654200e-14 1 
    0.518600 1.444330e-02 1.611100e-14 1 
    0.518875 1.460131e-02 1.627000e-14 1 
    0.519150 1.527890e-02 1.700700e-14 1 
    0.519425 1.544169e-02 1.717000e-14 1 
    0.519700 1.505291e-02 1.672000e-14 1 
    0.519975 1.531759e-02 1.699600e-14 1 
    0.520250 1.515516e-02 1.679800e-14 1 
    0.520525 1.492733e-02 1.652800e-14 1 
    0.520800 1.532464e-02 1.695000e-14 1 
    0.521075 1.585762e-02 1.752100e-14 1 
    0.521350 1.595410e-02 1.760900e-14 1 
    0.521625 1.645072e-02 1.813800e-14 1 
    0.521900 1.661970e-02 1.830500e-14 1 
    0.522175 1.593919e-02 1.753700e-14 1 
    0.522450 1.592323e-02 1.750100e-14 1 
    0.522725 1.621688e-02 1.780500e-14 1 
    0.523000 1.605706e-02 1.761100e-14 1 
    0.523275 1.594252e-02 1.746700e-14 1 
    0.523550 1.628455e-02 1.782300e-14 1 
    0.523825 1.587361e-02 1.735500e-14 1 
    0.524100 1.610728e-02 1.759200e-14 1 
    0.524375 1.592438e-02 1.737400e-14 1 
    0.524650 1.584291e-02 1.726700e-14 1 
    0.524925 1.592933e-02 1.734300e-14 1 
    0.525200 1.634507e-02 1.777700e-14 1 
    0.525475 1.652878e-02 1.795800e-14 1 
    0.525750 1.711458e-02 1.857500e-14 1 
    0.526025 1.674787e-02 1.815800e-14 1 
    0.526300 1.667859e-02 1.806400e-14 1 
    0.526575 1.624498e-02 1.757600e-14 1 
    0.526850 1.564482e-02 1.690900e-14 1 
    0.527125 1.631043e-02 1.761000e-14 1 
    0.527400 1.654904e-02 1.784900e-14 1 
    0.527675 1.609574e-02 1.734200e-14 1 
    0.527950 1.604563e-02 1.727000e-14 1 
    0.528225 1.610699e-02 1.731800e-14 1 
    0.528500 1.606977e-02 1.726000e-14 1 
    0.528775 1.553195e-02 1.666500e-14 1 
    0.529050 1.571978e-02 1.684900e-14 1 
    0.529325 1.616107e-02 1.730400e-14 1 
    0.529600 1.621433e-02 1.734300e-14 1 
    0.529875 1.667572e-02 1.781800e-14 1 
    0.530150 1.721018e-02 1.837000e-14 1 
    0.530425 1.727493e-02 1.842000e-14 1 
    0.530700 1.731256e-02 1.844100e-14 1 
    0.530975 1.684464e-02 1.792400e-14 1 
    0.531250 1.665137e-02 1.770000e-14 1 
    0.531525 1.687202e-02 1.791600e-14 1 
    0.531800 1.671980e-02 1.773600e-14 1 
    0.532075 1.729670e-02 1.832900e-14 1 
    0.532350 1.758570e-02 1.861600e-14 1 
    0.532625 1.760387e-02 1.861600e-14 1 
    0.532900 1.774985e-02 1.875100e-14 1 
    0.533175 1.730954e-02 1.826700e-14 1 
    0.533450 1.727808e-02 1.821500e-14 1 
    0.533725 1.721898e-02 1.813400e-14 1 
    0.534000 1.692876e-02 1.781000e-14 1 
    0.534275 1.672640e-02 1.757900e-14 1 
    0.534550 1.678744e-02 1.762500e-14 1 
    0.534825 1.679233e-02 1.761200e-14 1 
    0.535100 1.677333e-02 1.757400e-14 1 
    0.535375 1.710873e-02 1.790700e-14 1 
    0.535650 1.748114e-02 1.827800e-14 1 
    0.535925 1.741197e-02 1.818700e-14 1 
    0.536200 1.756593e-02 1.832900e-14 1 
    0.536475 1.750241e-02 1.824400e-14 1 
    0.536750 1.746274e-02 1.818400e-14 1 
    0.537025 1.796129e-02 1.868400e-14 1 
    0.537300 1.816446e-02 1.887600e-14 1 
    0.537575 1.819461e-02 1.888800e-14 1 
    0.537850 1.804352e-02 1.871200e-14 1 
    0.538125 1.763919e-02 1.827400e-14 1 
    0.538400 1.713932e-02 1.773800e-14 1 
    0.538675 1.694404e-02 1.751800e-14 1 
    0.538950 1.728667e-02 1.785400e-14 1 
    0.539225 1.757278e-02 1.813100e-14 1 
    0.539500 1.737630e-02 1.791000e-14 1 
    0.539775 1.708226e-02 1.758900e-14 1 
    0.540050 1.710065e-02 1.759000e-14 1 
    0.540325 1.762898e-02 1.811500e-14 1 
    0.540600 1.794697e-02 1.842300e-14 1 
    0.540875 1.773120e-02 1.818300e-14 1 
    0.541150 1.749446e-02 1.792200e-14 1 
    0.541425 1.705495e-02 1.745400e-14 1 
    0.541700 1.648344e-02 1.685200e-14 1 
    0.541975 1.671069e-02 1.706700e-14 1 
    0.542250 1.730004e-02 1.765100e-14 1 
    0.542525 1.727442e-02 1.760700e-14 1 
    0.542800 1.709159e-02 1.740300e-14 1 
    0.543075 1.716889e-02 1.746400e-14 1 
    0.543350 1.708196e-02 1.735800e-14 1 
    0.543625 1.762333e-02 1.789000e-14 1 
    0.543900 1.771512e-02 1.796500e-14 1 
    0.544175 1.714572e-02 1.737000e-14 1 
    0.544450 1.723420e-02 1.744200e-14 1 
    0.544725 1.727040e-02 1.746100e-14 1 
    0.545000 1.729973e-02 1.747300e-14 1 
    0.545275 1.725971e-02 1.741500e-14 1 
    0.545550 1.774241e-02 1.788400e-14 1 
    0.545825 1.829458e-02 1.842200e-14 1 
    0.546100 1.795813e-02 1.806500e-14 1 
    0.546375 1.749858e-02 1.758500e-14 1 
    0.546650 1.737874e-02 1.744700e-14 1 
    0.546925 1.693258e-02 1.698200e-14 1 
    0.547200 1.695760e-02 1.699000e-14 1 
    0.547475 1.738927e-02 1.740500e-14 1 
    0.547750 1.763077e-02 1.762900e-14 1 
    0.548025 1.815904e-02 1.813900e-14 1 
    0.548300 1.788966e-02 1.785200e-14 1 
    0.548575 1.771601e-02 1.766100e-14 1 
    0.548850 1.804305e-02 1.796900e-14 1 
    0.549125 1.763396e-02 1.754400e-14 1 
    0.549400 1.724515e-02 1.714000e-14 1 
    0.549675 1.730673e-02 1.718400e-14 1 
    0.549950 1.753274e-02 1.739100e-14 1 
    0.550225 1.793174e-02 1.776900e-14 1 
    0.550500 1.783451e-02 1.765500e-14 1 
    0.550775 1.801513e-02 1.781600e-14 1 
    0.551050 1.797847e-02 1.776200e-14 1 
    0.551325 1.780593e-02 1.757400e-14 1 
    0.551600 1.750727e-02 1.726200e-14 1 
    0.551875 1.779782e-02 1.753100e-14 1 
    0.552150 1.793650e-02 1.765000e-14 1 
    0.552425 1.829209e-02 1.798200e-14 1 
    0.552700 1.809647e-02 1.777200e-14 1 
    0.552975 1.775978e-02 1.742400e-14 1 
    0.553250 1.783356e-02 1.747900e-14 1 
    0.553525 1.853557e-02 1.814900e-14 1 
    0.553800 1.853048e-02 1.812600e-14 1 
    0.554075 1.842813e-02 1.800800e-14 1 
    0.554350 1.853965e-02 1.809900e-14 1 
    0.554625 1.852113e-02 1.806300e-14 1 
    0.554900 1.759831e-02 1.714600e-14 1 
    0.555175 1.811405e-02 1.763100e-14 1 
    0.555450 1.776177e-02 1.727100e-14 1 
    0.555725 1.800892e-02 1.749400e-14 1 
    0.556000 1.722197e-02 1.671300e-14 1 
    0.556275 1.791050e-02 1.736400e-14 1 
    0.556550 1.824002e-02 1.766600e-14 1 
    0.556825 1.717493e-02 1.661800e-14 1 
    0.557100 1.869714e-02 1.807300e-14 1 
    0.557375 1.897864e-02 1.832700e-14 1 
    0.557650 1.876310e-02 1.810100e-14 1 
    0.557925 1.756970e-02 1.693300e-14 1 
    0.558200 1.837118e-02 1.768800e-14 1 
    0.558475 1.811170e-02 1.742100e-14 1 
    0.558750 1.725330e-02 1.657900e-14 1 
    0.559025 1.807135e-02 1.734800e-14 1 
    0.559300 1.838110e-02 1.762800e-14 1 
    0.559575 1.747337e-02 1.674100e-14 1 
    0.559850 1.758980e-02 1.683600e-14 1 
    0.560125 1.791455e-02 1.713000e-14 1 
    0.560400 1.765579e-02 1.686600e-14 1 
    0.560675 1.763749e-02 1.683200e-14 1 
    0.560950 1.765899e-02 1.683600e-14 1 
    0.561225 1.770571e-02 1.686400e-14 1 
    0.561500 1.794481e-02 1.707500e-14 1 
    0.561775 1.824432e-02 1.734300e-14 1 
    0.562050 1.821059e-02 1.729400e-14 1 
    0.562325 1.822104e-02 1.728700e-14 1 
    0.562600 1.850474e-02 1.753900e-14 1 
    0.562875 1.836548e-02 1.739000e-14 1 
    0.563150 1.802929e-02 1.705500e-14 1 
    0.563425 1.801622e-02 1.702600e-14 1 
    0.563700 1.761966e-02 1.663500e-14 1 
    0.563975 1.833237e-02 1.729100e-14 1 
    0.564250 1.856569e-02 1.749400e-14 1 
    0.564525 1.897259e-02 1.786000e-14 1 
    0.564800 1.917716e-02 1.803500e-14 1 
    0.565075 1.765676e-02 1.658900e-14 1 
    0.565350 1.863601e-02 1.749200e-14 1 
    0.565625 1.856563e-02 1.740900e-14 1 
    0.565900 1.844385e-02 1.727800e-14 1 
    0.566175 1.830150e-02 1.712800e-14 1 
    0.566450 1.853427e-02 1.732900e-14 1 
    0.566725 1.869251e-02 1.746000e-14 1 
    0.567000 1.859814e-02 1.735500e-14 1 
    0.567275 1.894335e-02 1.766000e-14 1 
    0.567550 1.870403e-02 1.742000e-14 1 
    0.567825 1.821918e-02 1.695200e-14 1 
    0.568100 1.781296e-02 1.655800e-14 1 
    0.568375 1.821895e-02 1.691900e-14 1 
    0.568650 1.838857e-02 1.706000e-14 1 
    0.568925 1.846138e-02 1.711100e-14 1 
    0.569200 1.919849e-02 1.777700e-14 1 
    0.569475 1.831332e-02 1.694100e-14 1 
    0.569750 1.859720e-02 1.718700e-14 1 
    0.570025 1.861407e-02 1.718600e-14 1 
    0.570300 1.885970e-02 1.739600e-14 1 
    0.570575 1.821485e-02 1.678500e-14 1 
    0.570850 1.873968e-02 1.725200e-14 1 
    0.571125 1.895997e-02 1.743800e-14 1 
    0.571400 1.869636e-02 1.717900e-14 1 
    0.571675 1.828406e-02 1.678400e-14 1 
    0.571950 1.845867e-02 1.692800e-14 1 
    0.572225 1.808241e-02 1.656700e-14 1 
    0.572500 1.815333e-02 1.661600e-14 1 
    0.572775 1.817624e-02 1.662100e-14 1 
    0.573050 1.862060e-02 1.701100e-14 1 
    0.573325 1.956103e-02 1.785300e-14 1 
    0.573600 1.934620e-02 1.764000e-14 1 
    0.573875 1.892454e-02 1.723900e-14 1 
    0.574150 1.874819e-02 1.706200e-14 1 
    0.574425 1.914342e-02 1.740500e-14 1 
    0.574700 1.877752e-02 1.705600e-14 1 
    0.574975 2.034049e-02 1.845800e-14 1 
    0.575250 1.917307e-02 1.738200e-14 1 
    0.575525 1.906333e-02 1.726600e-14 1 
    0.575800 1.897767e-02 1.717200e-14 1 
    0.576075 1.907656e-02 1.724500e-14 1 
    0.576350 1.842045e-02 1.663600e-14 1 
    0.576625 1.825627e-02 1.647200e-14 1 
    0.576900 1.903361e-02 1.715700e-14 1 
    0.577175 1.911505e-02 1.721400e-14 1 
    0.577450 1.852529e-02 1.666700e-14 1 
    0.577725 1.927833e-02 1.732800e-14 1 
    0.578000 1.926328e-02 1.729800e-14 1 
    0.578275 1.913448e-02 1.716600e-14 1 
    0.578550 1.881796e-02 1.686600e-14 1 
    0.578825 1.957406e-02 1.752700e-14 1 
    0.579100 1.861119e-02 1.664900e-14 1 
    0.579375 1.937742e-02 1.731800e-14 1 
    0.579650 1.855583e-02 1.656800e-14 1 
    0.579925 1.906334e-02 1.700500e-14 1 
    0.580200 1.922506e-02 1.713300e-14 1 
    0.580475 1.938930e-02 1.726300e-14 1 
    0.580750 1.870165e-02 1.663500e-14 1 
    0.581025 1.944294e-02 1.727800e-14 1 
    0.581300 1.953231e-02 1.734100e-14 1 
    0.581575 1.956883e-02 1.735700e-14 1 
    0.581850 1.960201e-02 1.737000e-14 1 
    0.582125 1.946466e-02 1.723200e-14 1 
    0.582400 1.937113e-02 1.713300e-14 1 
    0.582675 1.957955e-02 1.730100e-14 1 
    0.582950 2.016669e-02 1.780300e-14 1 
    0.583225 1.933988e-02 1.705700e-14 1 
    0.583500 1.937627e-02 1.707300e-14 1 
    0.583775 1.966263e-02 1.730900e-14 1 
    0.584050 2.121277e-02 1.865600e-14 1 
    0.584325 1.941176e-02 1.705600e-14 1 
    0.584600 2.013975e-02 1.767900e-14 1 
    0.584875 1.961708e-02 1.720400e-14 1 
    0.585150 2.045957e-02 1.792600e-14 1 
    0.585425 1.978080e-02 1.731500e-14 1 
    0.585700 1.962215e-02 1.716000e-14 1 
    0.585975 1.960624e-02 1.713000e-14 1 
    0.586250 1.962121e-02 1.712700e-14 1 
    0.586525 1.908462e-02 1.664300e-14 1 
    0.586800 1.884312e-02 1.641700e-14 1 
    0.587075 1.986374e-02 1.729000e-14 1 
    0.587350 1.834719e-02 1.595500e-14 1 
    0.587625 1.853242e-02 1.610100e-14 1 
    0.587900 1.927213e-02 1.672800e-14 1 
    0.588175 1.923135e-02 1.667700e-14 1 
    0.588450 2.032971e-02 1.761300e-14 1 
    0.588725 2.025629e-02 1.753300e-14 1 
    0.589000 2.102457e-02 1.818100e-14 1 
    0.589275 1.948392e-02 1.683300e-14 1 
    0.589550 2.061665e-02 1.779500e-14 1 
    0.589825 2.023581e-02 1.745000e-14 1 
    0.590100 1.844743e-02 1.589300e-14 1 
    0.590375 1.798712e-02 1.548200e-14 1 
    0.590650 1.799574e-02 1.547500e-14 1 
    0.590925 1.702778e-02 1.462900e-14 1 
    0.591200 1.819471e-02 1.561700e-14 1 
    0.591475 1.813118e-02 1.554800e-14 1 
    0.591750 1.903397e-02 1.630700e-14 1 
    0.592025 1.933323e-02 1.654800e-14 1 
    0.592300 1.895360e-02 1.620800e-14 1 
    0.592575 1.961614e-02 1.675900e-14 1 
    0.592850 1.968824e-02 1.680500e-14 1 
    0.593125 1.956462e-02 1.668400e-14 1 
    0.593400 1.950999e-02 1.662200e-14 1 
    0.593675 1.983824e-02 1.688600e-14 1 
    0.593950 1.997774e-02 1.698900e-14 1 
    0.594225 1.988090e-02 1.689100e-14 1 
    0.594500 1.939861e-02 1.646600e-14 1 
    0.594775 1.939651e-02 1.644900e-14 1 
    0.595050 1.977444e-02 1.675400e-14 1 
    0.595325 1.944422e-02 1.645900e-14 1 
    0.595600 1.971996e-02 1.667700e-14 1 
    0.595875 1.981037e-02 1.673800e-14 1 
    0.596150 1.977772e-02 1.669500e-14 1 
    0.596425 1.983392e-02 1.672700e-14 1 
    0.596700 1.913299e-02 1.612100e-14 1 
    0.596975 1.906747e-02 1.605100e-14 1 
    0.597250 1.939419e-02 1.631100e-14 1 
    0.597525 1.977028e-02 1.661200e-14 1 
    0.597800 1.929889e-02 1.620100e-14 1 
    0.598075 1.950862e-02 1.636200e-14 1 
    0.598350 2.007314e-02 1.682000e-14 1 
    0.598625 1.960185e-02 1.641000e-14 1 
    0.598900 1.934368e-02 1.617900e-14 1 
    0.599175 1.940692e-02 1.621700e-14 1 
    0.599450 2.006916e-02 1.675500e-14 1 
    0.599725 1.993891e-02 1.663100e-14 1 
    0.600000 1.932600e-02 1.610500e-14 1 
    0.600275 1.933531e-02 1.609800e-14 1 
    0.600550 2.030758e-02 1.689200e-14 1 
    0.600825 2.020104e-02 1.678800e-14 1 
    0.601100 1.966671e-02 1.632900e-14 1 
    0.601375 1.909522e-02 1.584000e-14 1 
    0.601650 1.922370e-02 1.593200e-14 1 
    0.601925 1.929441e-02 1.597600e-14 1 
    0.602200 1.904006e-02 1.575100e-14 1 
    0.602475 1.864850e-02 1.541300e-14 1 
    0.602750 1.909302e-02 1.576600e-14 1 
    0.603025 1.894318e-02 1.562800e-14 1 
    0.603300 1.979638e-02 1.631700e-14 1 
    0.603575 1.986300e-02 1.635700e-14 1 
    0.603850 1.931835e-02 1.589400e-14 1 
    0.604125 1.951114e-02 1.603800e-14 1 
    0.604400 1.983819e-02 1.629200e-14 1 
    0.604675 2.020725e-02 1.658000e-14 1 
    0.604950 2.005119e-02 1.643700e-14 1 
    0.605225 2.040642e-02 1.671300e-14 1 
    0.605500 2.000335e-02 1.636800e-14 1 
    0.605775 2.067839e-02 1.690500e-14 1 
    0.606050 2.043149e-02 1.668800e-14 1 
    0.606325 2.006402e-02 1.637300e-14 1 
    0.606600 1.994362e-02 1.626000e-14 1 
    0.606875 1.960815e-02 1.597200e-14 1 
    0.607150 2.025997e-02 1.648800e-14 1 
    0.607425 2.012705e-02 1.636500e-14 1 
    0.607700 1.988677e-02 1.615500e-14 1 
    0.607975 1.986904e-02 1.612600e-14 1 
    0.608250 2.045923e-02 1.659000e-14 1 
    0.608525 1.986057e-02 1.609000e-14 1 
    0.608800 1.999095e-02 1.618100e-14 1 
    0.609075 2.029343e-02 1.641100e-14 1 
    0.609350 1.959018e-02 1.582800e-14 1 
    0.609625 2.095941e-02 1.691900e-14 1 
    0.609900 2.069686e-02 1.669200e-14 1 
    0.610175 2.059390e-02 1.659400e-14 1 
    0.610450 1.985723e-02 1.598600e-14 1 
    0.610725 2.029536e-02 1.632400e-14 1 
    0.611000 2.025391e-02 1.627600e-14 1 
    0.611275 1.979262e-02 1.589100e-14 1 
    0.611550 2.038763e-02 1.635400e-14 1 
    0.611825 2.022379e-02 1.620800e-14 1 
    0.612100 2.020701e-02 1.618000e-14 1 
    0.612375 2.025517e-02 1.620400e-14 1 
    0.612650 2.015326e-02 1.610800e-14 1 
    0.612925 2.007493e-02 1.603100e-14 1 
    0.613200 2.027344e-02 1.617500e-14 1 
    0.613475 2.082479e-02 1.660000e-14 1 
    0.613750 2.044543e-02 1.628300e-14 1 
    0.614025 2.049517e-02 1.630800e-14 1 
    0.614300 2.059404e-02 1.637200e-14 1 
    0.614575 1.972866e-02 1.567000e-14 1 
    0.614850 2.074434e-02 1.646200e-14 1 
    0.615125 2.034795e-02 1.613300e-14 1 
    0.615400 1.888157e-02 1.495700e-14 1 
    0.615675 2.012028e-02 1.592400e-14 1 
    0.615950 2.026219e-02 1.602200e-14 1 
    0.616225 1.987144e-02 1.569900e-14 1 
    0.616500 1.961046e-02 1.547900e-14 1 
    0.616775 2.070199e-02 1.632600e-14 1 
    0.617050 2.073061e-02 1.633400e-14 1 
    0.617325 2.046327e-02 1.610900e-14 1 
    0.617600 1.960930e-02 1.542300e-14 1 
    0.617875 1.939389e-02 1.524000e-14 1 
    0.618150 2.044795e-02 1.605400e-14 1 
    0.618425 1.938126e-02 1.520300e-14 1 
    0.618700 1.946613e-02 1.525600e-14 1 
    0.618975 1.930209e-02 1.511400e-14 1 
    0.619250 1.941639e-02 1.519000e-14 1 
    0.619525 2.056205e-02 1.607200e-14 1 
    0.619800 1.999639e-02 1.561600e-14 1 
    0.620075 2.021664e-02 1.577400e-14 1 
    0.620350 2.067585e-02 1.611800e-14 1 
    0.620625 1.978774e-02 1.541200e-14 1 
    0.620900 2.026019e-02 1.576600e-14 1 
    0.621175 1.933279e-02 1.503100e-14 1 
    0.621450 1.918256e-02 1.490100e-14 1 
    0.621725 1.979868e-02 1.536600e-14 1 
    0.622000 2.042489e-02 1.583800e-14 1 
    0.622275 2.095023e-02 1.623100e-14 1 
    0.622550 2.057859e-02 1.592900e-14 1 
    0.622825 2.005371e-02 1.550900e-14 1 
    0.623100 1.993035e-02 1.540000e-14 1 
    0.623375 2.015650e-02 1.556100e-14 1 
    0.623650 2.024559e-02 1.561600e-14 1 
    0.623925 1.929284e-02 1.486800e-14 1 
    0.624200 1.989169e-02 1.531600e-14 1 
    0.624475 2.011070e-02 1.547100e-14 1 
    0.624750 1.921118e-02 1.476600e-14 1 
    0.625025 1.998077e-02 1.534400e-14 1 
    0.625300 2.061874e-02 1.582000e-14 1 
    0.625575 2.075037e-02 1.590700e-14 1 
    0.625850 2.065241e-02 1.581800e-14 1 
    0.626125 1.998974e-02 1.529700e-14 1 
    0.626400 1.927748e-02 1.473900e-14 1 
    0.626675 1.946459e-02 1.486900e-14 1 
    0.626950 1.989964e-02 1.518800e-14 1 
    0.627225 2.029608e-02 1.547700e-14 1 
    0.627500 2.047007e-02 1.559600e-14 1 
    0.627775 2.012807e-02 1.532200e-14 1 
    0.628050 2.018516e-02 1.535200e-14 1 
    0.628325 2.137011e-02 1.623900e-14 1 
    0.628600 2.021131e-02 1.534500e-14 1 
    0.628875 2.012881e-02 1.526900e-14 1 
    0.629150 2.038655e-02 1.545100e-14 1 
    0.629425 1.929905e-02 1.461400e-14 1 
    0.629700 1.956572e-02 1.480300e-14 1 
    0.629975 1.948360e-02 1.472800e-14 1 
    0.630250 2.064989e-02 1.559600e-14 1 
    0.630525 2.064803e-02 1.558100e-14 1 
    0.630800 1.929989e-02 1.455100e-14 1 
    0.631075 1.944019e-02 1.464400e-14 1 
    0.631350 2.056259e-02 1.547600e-14 1 
    0.631625 2.200210e-02 1.654500e-14 1 
    0.631900 2.387667e-02 1.793900e-14 1 
    0.632175 2.310216e-02 1.734200e-14 1 
    0.632450 2.183428e-02 1.637600e-14 1 
    0.632725 2.151165e-02 1.612000e-14 1 
    0.633000 2.180550e-02 1.632600e-14 1 
    0.633275 2.154506e-02 1.611700e-14 1 
    0.633550 2.103127e-02 1.571900e-14 1 
    0.633825 2.095847e-02 1.565100e-14 1 
    0.634100 2.087212e-02 1.557300e-14 1 
    0.634375 2.212703e-02 1.649500e-14 1 
    0.634650 2.117686e-02 1.577300e-14 1 
    0.634925 1.979770e-02 1.473300e-14 1 
    0.635200 2.001660e-02 1.488300e-14 1 
    0.635475 2.052122e-02 1.524500e-14 1 
    0.635750 2.084077e-02 1.546900e-14 1 
    0.636025 2.078059e-02 1.541100e-14 1 
    0.636300 2.041663e-02 1.512800e-14 1 
    0.636575 2.040862e-02 1.510900e-14 1 
    0.636850 2.121308e-02 1.569100e-14 1 
    0.637125 2.148308e-02 1.587700e-14 1 
    0.637400 2.093283e-02 1.545700e-14 1 
    0.637675 2.082214e-02 1.536200e-14 1 
    0.637950 2.025676e-02 1.493200e-14 1 
    0.638225 1.972569e-02 1.452800e-14 1 
    0.638500 2.115735e-02 1.556900e-14 1 
    0.638775 2.040848e-02 1.500500e-14 1 
    0.639050 2.133267e-02 1.567100e-14 1 
    0.639325 2.057716e-02 1.510300e-14 1 
    0.639600 2.067259e-02 1.516000e-14 1 
    0.639875 2.091965e-02 1.532800e-14 1 
    0.640150 2.176132e-02 1.593100e-14 1 
    0.640425 2.063162e-02 1.509100e-14 1 
    0.640700 2.023611e-02 1.478900e-14 1 
    0.640975 2.163120e-02 1.579500e-14 1 
    0.641250 2.087670e-02 1.523100e-14 1 
    0.641525 2.064494e-02 1.504900e-14 1 
    0.641800 2.115556e-02 1.540800e-14 1 
    0.642075 2.126713e-02 1.547600e-14 1 
    0.642350 2.156043e-02 1.567600e-14 1 
    0.642625 2.134763e-02 1.550800e-14 1 
    0.642900 2.167177e-02 1.573000e-14 1 
    0.643175 2.099258e-02 1.522400e-14 1 
    0.643450 2.119409e-02 1.535700e-14 1 
    0.643725 2.205755e-02 1.596900e-14 1 
    0.644000 2.224367e-02 1.609000e-14 1 
    0.644275 2.079187e-02 1.502700e-14 1 
    0.644550 2.085809e-02 1.506200e-14 1 
    0.644825 2.101172e-02 1.516000e-14 1 
    0.645100 2.036935e-02 1.468400e-14 1 
    0.645375 2.205137e-02 1.588300e-14 1 
    0.645650 2.182422e-02 1.570600e-14 1 
    0.645925 2.079003e-02 1.494900e-14 1 
    0.646200 2.254624e-02 1.619800e-14 1 
    0.646475 2.140080e-02 1.536200e-14 1 
    0.646750 2.102303e-02 1.507800e-14 1 
    0.647025 2.041016e-02 1.462600e-14 1 
    0.647300 2.030461e-02 1.453800e-14 1 
    0.647575 2.041272e-02 1.460300e-14 1 
    0.647850 2.131845e-02 1.523800e-14 1 
    0.648125 2.087728e-02 1.491000e-14 1 
    0.648400 2.169520e-02 1.548100e-14 1 
    0.648675 2.124234e-02 1.514500e-14 1 
    0.648950 2.145548e-02 1.528400e-14 1 
    0.649225 2.205814e-02 1.570000e-14 1 
    0.649500 2.263648e-02 1.609800e-14 1 
    0.649775 2.199420e-02 1.562800e-14 1 
    0.650050 2.152828e-02 1.528400e-14 1 
    0.650325 2.137874e-02 1.516500e-14 1 
    0.650600 2.122186e-02 1.504100e-14 1 
    0.650875 2.151659e-02 1.523700e-14 1 
    0.651150 2.088747e-02 1.477900e-14 1 
    0.651425 2.077357e-02 1.468600e-14 1 
    0.651700 2.058300e-02 1.453900e-14 1 
    0.651975 2.044027e-02 1.442600e-14 1 
    0.652250 2.131546e-02 1.503100e-14 1 
    0.652525 2.212967e-02 1.559200e-14 1 
    0.652800 2.243100e-02 1.579100e-14 1 
    0.653075 2.206463e-02 1.552000e-14 1 
    0.653350 2.118680e-02 1.489000e-14 1 
    0.653625 2.085716e-02 1.464600e-14 1 
    0.653900 2.212041e-02 1.552000e-14 1 
    0.654175 2.308763e-02 1.618500e-14 1 
    0.654450 2.232468e-02 1.563700e-14 1 
    0.654725 2.148754e-02 1.503800e-14 1 
    0.655000 2.220490e-02 1.552700e-14 1 
    0.655275 2.290914e-02 1.600600e-14 1 
    0.655550 2.224078e-02 1.552600e-14 1 
    0.655825 2.209313e-02 1.541000e-14 1 
    0.656100 2.267271e-02 1.580100e-14 1 
    0.656375 2.375730e-02 1.654300e-14 1 
    0.656650 2.758749e-02 1.919400e-14 1 
    0.656925 2.975828e-02 2.068700e-14 1 
    0.657200 2.968962e-02 2.062200e-14 1 
    0.657475 3.367554e-02 2.337100e-14 1 
    0.657750 5.619929e-02 3.897000e-14 1 
    0.658025 1.110738e-01 7.695700e-14 1 
    0.658300 1.626685e-01 1.126100e-13 1 
    0.658575 1.502554e-01 1.039300e-13 1 
    0.658850 8.704094e-02 6.015500e-14 1 
    0.659125 3.951429e-02 2.728600e-14 1 
    0.659400 2.773498e-02 1.913600e-14 1 
    0.659675 2.617119e-02 1.804200e-14 1 
    0.659950 3.079661e-02 2.121300e-14 1 
    0.660225 4.230381e-02 2.911500e-14 1 
    0.660500 4.661877e-02 3.205800e-14 1 
    0.660775 3.987247e-02 2.739600e-14 1 
    0.661050 2.801233e-02 1.923100e-14 1 
    0.661325 2.247546e-02 1.541700e-14 1 
    0.661600 2.137798e-02 1.465200e-14 1 
    0.661875 2.177980e-02 1.491500e-14 1 
    0.662150 2.106278e-02 1.441200e-14 1 
    0.662425 2.200031e-02 1.504100e-14 1 
    0.662700 2.224695e-02 1.519700e-14 1 
    0.662975 2.389024e-02 1.630600e-14 1 
    0.663250 2.046857e-02 1.395900e-14 1 
    0.663525 2.184304e-02 1.488400e-14 1 
    0.663800 2.161733e-02 1.471800e-14 1 
    0.664075 2.311846e-02 1.572700e-14 1 
    0.664350 2.169289e-02 1.474500e-14 1 
    0.664625 2.236461e-02 1.518900e-14 1 
    0.664900 2.209723e-02 1.499500e-14 1 
    0.665175 2.196803e-02 1.489500e-14 1 
    0.665450 2.096327e-02 1.420200e-14 1 
    0.665725 2.252586e-02 1.524800e-14 1 
    0.666000 2.264353e-02 1.531500e-14 1 
    0.666275 2.324970e-02 1.571200e-14 1 
    0.666550 2.268095e-02 1.531500e-14 1 
    0.666825 2.237210e-02 1.509400e-14 1 
    0.667100 2.127949e-02 1.434500e-14 1 
    0.667375 2.292716e-02 1.544300e-14 1 
    0.667650 2.131162e-02 1.434300e-14 1 
    0.667925 2.347504e-02 1.578600e-14 1 
    0.668200 2.223824e-02 1.494200e-14 1 
    0.668475 2.219697e-02 1.490200e-14 1 
    0.668750 2.296061e-02 1.540200e-14 1 
    0.669025 2.267514e-02 1.519800e-14 1 
    0.669300 2.176799e-02 1.457800e-14 1 
    0.669575 2.298442e-02 1.538000e-14 1 
    0.669850 2.338470e-02 1.563500e-14 1 
    0.670125 2.379160e-02 1.589400e-14 1 
    0.670400 2.311450e-02 1.542900e-14 1 
    0.670675 2.195198e-02 1.464100e-14 1 
    0.670950 2.180492e-02 1.453100e-14 1 
    0.671225 2.220726e-02 1.478700e-14 1 
    0.671500 2.295594e-02 1.527300e-14 1 
    0.671775 2.246029e-02 1.493100e-14 1 
    0.672050 2.241695e-02 1.489000e-14 1 
    0.672325 2.288582e-02 1.518900e-14 1 
    0.672600 2.306288e-02 1.529400e-14 1 
    0.672875 2.385144e-02 1.580400e-14 1 
    0.673150 2.742650e-02 1.815800e-14 1 
    0.673425 3.658848e-02 2.420400e-14 1 
    0.673700 4.535994e-02 2.998200e-14 1 
    0.673975 4.317119e-02 2.851200e-14 1 
    0.674250 3.425812e-02 2.260700e-14 1 
    0.674525 2.870494e-02 1.892700e-14 1 
    0.674800 3.140887e-02 2.069300e-14 1 
    0.675075 3.767185e-02 2.479900e-14 1 
    0.675350 3.828331e-02 2.518100e-14 1 
    0.675625 3.231345e-02 2.123700e-14 1 
    0.675900 2.570187e-02 1.687800e-14 1 
    0.676175 2.291550e-02 1.503600e-14 1 
    0.676450 2.292651e-02 1.503100e-14 1 
    0.676725 2.218190e-02 1.453100e-14 1 
    0.677000 2.205632e-02 1.443700e-14 1 
    0.677275 2.188923e-02 1.431600e-14 1 
    0.677550 2.265071e-02 1.480200e-14 1 
    0.677825 2.185282e-02 1.426900e-14 1 
    0.678100 2.127739e-02 1.388200e-14 1 
    0.678375 2.247888e-02 1.465400e-14 1 
    0.678650 2.157751e-02 1.405500e-14 1 
    0.678925 2.153815e-02 1.401800e-14 1 
    0.679200 2.231523e-02 1.451200e-14 1 
    0.679475 2.383994e-02 1.549100e-14 1 
    0.679750 2.110228e-02 1.370100e-14 1 
    0.680025 2.240030e-02 1.453200e-14 1 
    0.680300 2.212994e-02 1.434500e-14 1 
    0.680575 2.209689e-02 1.431200e-14 1 
    0.680850 2.255513e-02 1.459700e-14 1 
    0.681125 2.253933e-02 1.457500e-14 1 
    0.681400 2.196167e-02 1.419000e-14 1 
    0.681675 2.161385e-02 1.395400e-14 1 
    0.681950 2.195838e-02 1.416500e-14 1 
    0.682225 2.277974e-02 1.468300e-14 1 
    0.682500 2.359930e-02 1.519900e-14 1 
    0.682775 2.300451e-02 1.480400e-14 1 
    0.683912 2.246690e-02 1.441000e-14 0 
    0.685488 2.287913e-02 1.460700e-14 0 
    0.687068 2.184390e-02 1.388200e-14 0 
    0.688652 2.193842e-02 1.387800e-14 0 
    0.690240 2.223822e-02 1.400300e-14 0 
    0.691831 2.233607e-02 1.400000e-14 0 
    0.693426 2.248566e-02 1.402900e-14 0 
    0.695024 2.242679e-02 1.392800e-14 0 
    0.696626 2.289102e-02 1.415100e-14 0 
    0.698233 2.262299e-02 1.392100e-14 0 
    0.699842 2.357469e-02 1.444000e-14 0 
    0.701455 2.346042e-02 1.430400e-14 0 
    0.703072 2.281571e-02 1.384700e-14 0 
    0.704693 2.223906e-02 1.343500e-14 0 
    0.706318 2.344261e-02 1.409700e-14 0 
    0.707946 2.414889e-02 1.445500e-14 0 
    0.709578 2.253167e-02 1.342500e-14 0 
    0.711214 2.331686e-02 1.382900e-14 0 
    0.712853 2.283330e-02 1.348000e-14 0 
    0.714496 2.261705e-02 1.329100e-14 0 
    0.716143 2.184445e-02 1.277800e-14 0 
    0.717794 2.209127e-02 1.286300e-14 0 
    0.719449 2.208629e-02 1.280100e-14 0 
    0.721108 2.172720e-02 1.253500e-14 0 
    0.722770 2.222623e-02 1.276400e-14 0 
    0.724436 2.300231e-02 1.314900e-14 0 
    0.726106 2.331587e-02 1.326700e-14 0 
    0.727780 2.341643e-02 1.326300e-14 0 
    0.729457 2.303671e-02 1.298800e-14 0 
    0.731139 2.318940e-02 1.301400e-14 0 
    0.732825 2.427745e-02 1.356200e-14 0 
    0.734514 2.404780e-02 1.337200e-14 0 
    0.736207 2.409735e-02 1.333800e-14 0 
    0.737904 2.459517e-02 1.355100e-14 0 
    0.739605 2.408327e-02 1.320800e-14 0 
    0.741310 2.469452e-02 1.348100e-14 0 
    0.743019 2.474594e-02 1.344700e-14 0 
    0.744732 2.395429e-02 1.295700e-14 0 
    0.746449 2.490251e-02 1.340800e-14 0 
    0.748170 2.518540e-02 1.349800e-14 0 
    0.749894 2.552841e-02 1.361900e-14 0 
    0.751623 2.534496e-02 1.345900e-14 0 
    0.753356 2.563224e-02 1.354900e-14 0 
    0.755092 2.604129e-02 1.370200e-14 0 
    0.756833 2.609469e-02 1.366700e-14 0 
    0.758578 2.572795e-02 1.341300e-14 0 
    0.760326 2.525122e-02 1.310400e-14 0 
    0.762079 2.507160e-02 1.295100e-14 0 
    0.763836 2.489173e-02 1.279900e-14 0 
    0.765597 2.499882e-02 1.279500e-14 0 
    0.767361 2.528099e-02 1.288000e-14 0 
    0.769130 2.436048e-02 1.235400e-14 0 
    0.770904 2.492069e-02 1.258000e-14 0 
    0.772681 2.457201e-02 1.234700e-14 0 
    0.774462 2.450948e-02 1.225900e-14 0 
    0.776247 2.478528e-02 1.234000e-14 0 
    0.778037 2.360832e-02 1.170000e-14 0 
    0.779830 2.488488e-02 1.227600e-14 0 
    0.781628 2.482055e-02 1.218800e-14 0 
    0.783430 2.475713e-02 1.210100e-14 0 
    0.785236 2.561955e-02 1.246500e-14 0 
    0.787046 2.497175e-02 1.209400e-14 0 
    0.788860 2.542926e-02 1.225900e-14 0 
    0.790679 2.536328e-02 1.217100e-14 0 
    0.792501 2.558917e-02 1.222300e-14 0 
    0.794328 2.488494e-02 1.183200e-14 0 
    0.796159 2.493430e-02 1.180100e-14 0 
    0.797995 2.397113e-02 1.129300e-14 0 
    0.799834 2.509252e-02 1.176700e-14 0 
    0.801678 2.567108e-02 1.198300e-14 0 
    0.803526 2.507935e-02 1.165300e-14 0 
    0.805378 2.613129e-02 1.208600e-14 0 
    0.807235 2.667115e-02 1.227900e-14 0 
    0.809096 2.666334e-02 1.221900e-14 0 
    0.810961 2.563111e-02 1.169200e-14 0 
    0.812831 2.481127e-02 1.126600e-14 0 
    0.814704 2.627314e-02 1.187500e-14 0 
    0.816582 2.626549e-02 1.181700e-14 0 
    0.818465 2.566106e-02 1.149200e-14 0 
    0.820352 2.571222e-02 1.146200e-14 0 
    0.822243 2.529228e-02 1.122300e-14 0 
    0.824138 2.666100e-02 1.177600e-14 0 
    0.826038 2.610628e-02 1.147800e-14 0 
    0.827942 2.664492e-02 1.166100e-14 0 
    0.829851 2.750938e-02 1.198400e-14 0 
    0.831764 2.638414e-02 1.144100e-14 0 
    0.833681 2.655918e-02 1.146400e-14 0 
    0.835603 2.582762e-02 1.109700e-14 0 
    0.837529 2.605671e-02 1.114400e-14 0 
    0.839460 2.702733e-02 1.150600e-14 0 
    0.841395 2.610195e-02 1.106100e-14 0 
    0.843335 2.651642e-02 1.118500e-14 0 
    0.845279 2.712706e-02 1.139000e-14 0 
    0.847227 2.490265e-02 1.040800e-14 0 
    0.849180 2.649105e-02 1.102100e-14 0 
    0.851138 2.703836e-02 1.119700e-14 0 
    0.853100 2.605208e-02 1.073900e-14 0 
    0.855067 2.586528e-02 1.061300e-14 0 
    0.857038 2.645965e-02 1.080700e-14 0 
    0.859014 2.681793e-02 1.090300e-14 0 
    0.860994 2.718139e-02 1.100000e-14 0 
    0.862979 2.649511e-02 1.067300e-14 0 
    0.864968 2.618344e-02 1.049900e-14 0 
    0.866962 2.740669e-02 1.093900e-14 0 
    0.868960 2.652888e-02 1.054000e-14 0 
    0.870964 2.573856e-02 1.017900e-14 0 
    0.872971 2.675657e-02 1.053300e-14 0 
    0.874984 2.718380e-02 1.065200e-14 0 
    0.877001 2.787074e-02 1.087100e-14 0 
    0.879023 2.600331e-02 1.009600e-14 0 
    0.881049 2.703152e-02 1.044700e-14 0 
    0.883080 2.752541e-02 1.058900e-14 0 
    0.885116 2.848292e-02 1.090700e-14 0 
    0.887156 2.821296e-02 1.075400e-14 0 
    0.889201 2.781606e-02 1.055400e-14 0 
    0.891251 2.643392e-02 9.983500e-15 0 
    0.893305 2.741641e-02 1.030700e-14 0 
    0.895365 2.778885e-02 1.039900e-14 0 
    0.897429 2.823121e-02 1.051600e-14 0 
    0.899498 2.745265e-02 1.017900e-14 0 
    0.901571 2.719188e-02 1.003600e-14 0 
    0.903650 2.775022e-02 1.019500e-14 0 
    0.905733 2.559390e-02 9.359600e-15 0 
    0.907820 2.944367e-02 1.071800e-14 0 
    0.909913 2.869646e-02 1.039800e-14 0 
    0.912011 2.634474e-02 9.502000e-15 0 
    0.914113 2.802611e-02 1.006200e-14 0 
    0.916220 2.947061e-02 1.053200e-14 0 
    0.918333 2.807042e-02 9.985500e-15 0 
    0.920450 2.844992e-02 1.007400e-14 0 
    0.922571 2.850742e-02 1.004800e-14 0 
    0.924698 2.784809e-02 9.770500e-15 0 
    0.926830 2.622082e-02 9.157300e-15 0 
    0.928966 2.815091e-02 9.786200e-15 0 
    0.931108 2.939869e-02 1.017300e-14 0 
    0.933254 2.826101e-02 9.734400e-15 0 
    0.935406 2.904277e-02 9.957700e-15 0 
    0.937562 2.909916e-02 9.931200e-15 0 
    0.939723 2.882224e-02 9.791500e-15 0 
    0.941890 2.921289e-02 9.878600e-15 0 
    0.944061 2.873572e-02 9.672600e-15 0 
    0.946237 2.946227e-02 9.871600e-15 0 
    0.948418 2.924893e-02 9.755100e-15 0 
    0.950605 2.978219e-02 9.887300e-15 0 
    0.952796 2.984005e-02 9.861000e-15 0 
    0.954993 2.935218e-02 9.655200e-15 0 
    0.957194 2.927416e-02 9.585300e-15 0 
    0.959401 2.926357e-02 9.537800e-15 0 
    0.961612 2.993431e-02 9.711600e-15 0 
    0.963829 2.978607e-02 9.619100e-15 0 
    0.966051 2.991267e-02 9.615600e-15 0 
    0.968278 2.976417e-02 9.523900e-15 0 
    0.970510 2.982179e-02 9.498500e-15 0 
    0.972747 3.015593e-02 9.560800e-15 0 
    0.974990 2.993742e-02 9.447900e-15 0 
    0.977237 2.978875e-02 9.357800e-15 0 
    0.979490 2.977788e-02 9.311400e-15 0 
    0.981748 2.956193e-02 9.201400e-15 0 
    0.984011 3.016960e-02 9.347400e-15 0 
    0.986279 3.001960e-02 9.258200e-15 0 
    0.988553 3.021650e-02 9.276100e-15 0 
    0.990832 3.013574e-02 9.208800e-15 0 
    0.993116 3.012426e-02 9.163000e-15 0 
    0.995405 3.018237e-02 9.138500e-15 0 
    0.997700 3.031009e-02 9.135000e-15 0 
    1.000000 3.043867e-02 9.131600e-15 0 
    1.002305 3.035679e-02 9.065200e-15 0 
    1.006931 3.026386e-02 8.954600e-15 0 
    1.011580 2.989451e-02 8.764200e-15 0 
    1.016249 3.077907e-02 8.940800e-15 0 
    1.020939 3.068440e-02 8.831600e-15 0 
    1.025652 3.094416e-02 8.824700e-15 0 
    1.030386 3.113422e-02 8.797500e-15 0 
    1.032761 3.112183e-02 8.753600e-15 0 
    1.054386 3.108137e-02 8.387300e-15 0 
    1.073990 3.064575e-02 7.970600e-15 0 
    1.093956 3.022526e-02 7.576900e-15 0 
    1.114294 3.015557e-02 7.286000e-15 0 
    1.132400 3.022537e-02 7.071200e-15 0 
    1.153453 3.092906e-02 6.974100e-15 0 
    1.174898 3.100070e-02 6.737400e-15 0 
    1.193988 3.078694e-02 6.478700e-15 0 
    1.213389 3.100053e-02 6.316700e-15 0 
    1.233105 3.128730e-02 6.172900e-15 0 
    1.253141 3.128738e-02 5.977100e-15 0 
    1.273503 3.135932e-02 5.800800e-15 0 
    1.294196 3.143198e-02 5.629800e-15 0 
    1.315225 3.179576e-02 5.514300e-15 0 
    1.333521 3.157689e-02 5.327100e-15 0 
    1.355189 3.179597e-02 5.193900e-15 0 
    1.374042 3.194230e-02 5.075600e-15 0 
    1.393157 3.164939e-02 4.892000e-15 0 
    1.415794 3.128715e-02 4.682600e-15 0 
    1.435490 3.150431e-02 4.586600e-15 0 
    1.455459 3.223792e-02 4.565500e-15 0 
    1.475707 3.201599e-02 4.410500e-15 0 
    1.496236 3.306518e-02 4.430900e-15 0 
    1.513561 3.367956e-02 4.410500e-15 0 
    1.534617 3.486336e-02 4.441100e-15 0 
    1.555965 3.543012e-02 4.390300e-15 0 
    1.573983 3.542962e-02 4.290300e-15 0 
    1.595879 3.502401e-02 4.125600e-15 0 
    1.614359 3.583984e-02 4.125600e-15 0 
    1.636817 3.650637e-02 4.087800e-15 0 
    1.655770 3.659087e-02 4.004000e-15 0 
    1.674943 3.701396e-02 3.958100e-15 0 
    1.694338 3.701394e-02 3.868000e-15 0 
    1.713958 3.701442e-02 3.780000e-15 0 
    1.733803 3.625524e-02 3.618200e-15 0 
    1.753880 3.600569e-02 3.511500e-15 0 
    1.774190 3.534818e-02 3.368900e-15 0 
    1.794734 3.486379e-02 3.247100e-15 0 
    1.815515 3.391352e-02 3.086700e-15 0 
    1.836538 3.375795e-02 3.002600e-15 0 
    1.857805 3.337082e-02 2.900600e-15 0 
    1.874994 3.238690e-02 2.763700e-15 0 
    1.896705 3.223831e-02 2.688400e-15 0 
    1.914256 3.223796e-02 2.639300e-15 0 
    1.936423 3.179525e-02 2.543800e-15 0 
    1.954339 3.107243e-02 2.440600e-15 0 
    1.976970 3.078655e-02 2.363100e-15 0 
    1.995263 3.036498e-02 2.288200e-15 0 
    2.018366 3.050463e-02 2.246400e-15 0 
    2.037042 2.994861e-02 2.165200e-15 0 
    2.055892 3.001656e-02 2.130500e-15 0 
    2.074913 2.967332e-02 2.067700e-15 0 
    2.098940 2.960529e-02 2.016000e-15 0 
    2.118362 2.960525e-02 1.979200e-15 0 
    2.137962 2.940143e-02 1.929700e-15 0 
    2.157745 2.919847e-02 1.881400e-15 0 
    2.177709 2.866632e-02 1.813400e-15 0 
    2.197860 2.873234e-02 1.784400e-15 0 
    2.218197 2.840382e-02 1.731800e-15 0 
    2.238721 2.807818e-02 1.680700e-15 0 
    2.259436 2.788549e-02 1.638700e-15 0 
    2.275097 2.750217e-02 1.594000e-15 0 
    2.296149 2.519808e-02 1.433800e-15 0 
    2.317393 2.543200e-02 1.420700e-15 0 
    2.338837 2.282332e-02 1.251700e-15 0 
    2.355050 2.179496e-02 1.178900e-15 0 
    2.376840 2.245812e-02 1.192600e-15 0 
    2.398834 2.105536e-02 1.097700e-15 0 
    2.415460 2.062477e-02 1.060500e-15 0 
    2.437811 2.076655e-02 1.048300e-15 0 
    2.460366 1.974095e-02 9.783400e-16 0 
    2.477422 1.969562e-02 9.627000e-16 0 
    2.500344 1.723328e-02 8.269700e-16 0 
    2.517677 1.727316e-02 8.175100e-16 0 
    2.540974 1.763477e-02 8.193900e-16 0 
    2.558586 1.771620e-02 8.118800e-16 0 
    2.576320 1.812880e-02 8.193900e-16 0 
    2.600159 1.808701e-02 8.025800e-16 0 
    2.618184 1.821252e-02 7.970600e-16 0 
    2.636331 1.796267e-02 7.753400e-16 0 
    2.660726 1.812885e-02 7.682300e-16 0 
    2.679168 1.796256e-02 7.507400e-16 0 
    2.697741 1.796260e-02 7.404400e-16 0 
    2.716439 1.792123e-02 7.286000e-16 0 
    2.741575 1.783903e-02 7.120200e-16 0 
    2.760578 1.779785e-02 7.006300e-16 0 
    2.779712 1.759418e-02 6.831100e-16 0 
    2.798981 1.763474e-02 6.752900e-16 0 
    2.818382 1.751334e-02 6.614400e-16 0 
    2.837920 1.743296e-02 6.493700e-16 0 
    2.857590 1.731290e-02 6.360500e-16 0 
    2.877399 1.715414e-02 6.215700e-16 0 
    2.897343 1.715408e-02 6.130400e-16 0 
    2.917428 1.703611e-02 6.004700e-16 0 
    2.937649 1.691869e-02 5.881500e-16 0 
    2.958014 1.684112e-02 5.774200e-16 0 
    2.978516 1.676369e-02 5.668800e-16 0 
    2.999164 1.664822e-02 5.552500e-16 0 
    3.019952 1.657185e-02 5.451200e-16 0 
    3.040884 1.645777e-02 5.339400e-16 0 
    3.061964 1.645766e-02 5.266100e-16 0 
    3.083187 1.645781e-02 5.193900e-16 0 
    3.097421 1.634437e-02 5.110800e-16 0 
    3.118889 1.630680e-02 5.029100e-16 0 
    3.140510 1.630683e-02 4.960100e-16 0 
    3.162278 1.623200e-02 4.869600e-16 0 
    3.176873 1.615746e-02 4.802800e-16 0 
    3.198896 1.615747e-02 4.736900e-16 0 
    3.221068 1.619443e-02 4.682600e-16 0 
    3.243397 1.630682e-02 4.650400e-16 0 
    3.258367 1.653379e-02 4.671900e-16 0 
    3.280952 1.739280e-02 4.847200e-16 0 
    3.303696 1.978637e-02 5.438600e-16 0 
    3.318944 1.974105e-02 5.376400e-16 0 
    3.341952 1.719375e-02 4.618400e-16 0 
    3.357376 1.615725e-02 4.300200e-16 0 
    3.380647 1.571685e-02 4.125600e-16 0 
    3.404082 1.546582e-02 4.004000e-16 0 
    3.419794 1.521830e-02 3.903800e-16 0 
    3.443501 1.514861e-02 3.832600e-16 0 
    3.459394 1.497522e-02 3.754000e-16 0 
    3.483372 1.487209e-02 3.677000e-16 0 
    3.499453 1.473582e-02 3.609900e-16 0 
    3.523708 1.463411e-02 3.535800e-16 0 
    3.539971 1.446666e-02 3.463300e-16 0 
    3.564512 1.440027e-02 3.400100e-16 0 
    3.580964 1.426806e-02 3.338000e-16 0 
    3.605788 1.420263e-02 3.277100e-16 0 
    3.622430 1.407247e-02 3.217300e-16 0 
    3.639149 1.394354e-02 3.158600e-16 0 
    3.664377 1.384750e-02 3.093800e-16 0 
    3.681289 1.372038e-02 3.037300e-16 0 
    3.698280 1.356330e-02 2.975000e-16 0 
    3.723918 1.347003e-02 2.914000e-16 0 
    3.741105 1.337725e-02 2.867400e-16 0 
    3.758372 1.319356e-02 2.802100e-16 0 
    3.784427 1.322435e-02 2.770100e-16 0 
    3.801893 1.310290e-02 2.719500e-16 0 
    3.819441 1.298295e-02 2.669900e-16 0 
    3.845918 1.295305e-02 2.627200e-16 0 
    3.863669 1.283405e-02 2.579200e-16 0 
    3.881506 1.268715e-02 2.526300e-16 0 
    3.899421 1.259977e-02 2.485900e-16 0 
    3.926448 1.254224e-02 2.440600e-16 0 
    3.944575 1.245552e-02 2.401500e-16 0 
    3.962781 1.231322e-02 2.352300e-16 0 
    3.981071 1.222850e-02 2.314700e-16 0 
    3.999450 1.208841e-02 2.267200e-16 0 
    4.027171 1.206087e-02 2.231000e-16 0 
    4.045758 1.197767e-02 2.195300e-16 0 
    4.064435 1.184072e-02 2.150300e-16 0 
    4.083195 1.178633e-02 2.120800e-16 0 
    4.102040 1.170467e-02 2.086800e-16 0 
    4.120973 1.162447e-02 2.053500e-16 0 
    4.139998 1.157093e-02 2.025300e-16 0 
    4.159106 1.146465e-02 1.988300e-16 0 
    4.187938 1.143824e-02 1.956500e-16 0 
    4.207267 1.135997e-02 1.925300e-16 0 
    4.226686 1.128167e-02 1.894500e-16 0 
    4.246193 1.125562e-02 1.872800e-16 0 
    4.265796 1.115234e-02 1.838600e-16 0 
    4.285485 1.110126e-02 1.813400e-16 0 
    4.305264 1.079866e-02 1.747800e-16 0 
    4.325140 1.050451e-02 1.684600e-16 0 
    4.345102 1.057716e-02 1.680700e-16 0 
    4.365157 1.028885e-02 1.619900e-16 0 
    4.385309 1.017124e-02 1.586700e-16 0 
    4.405549 1.010102e-02 1.561300e-16 0 
    4.425883 9.871268e-03 1.511800e-16 0 
    4.446310 9.848593e-03 1.494500e-16 0 
    4.466837 9.780780e-03 1.470600e-16 0 
    4.487454 9.624260e-03 1.433800e-16 0 
    4.508165 9.668590e-03 1.427200e-16 0 
    4.528977 9.580300e-03 1.401200e-16 0 
    4.549880 9.470204e-03 1.372400e-16 0 
    4.560368 9.448751e-03 1.363000e-16 0 
    4.581416 9.427028e-03 1.347400e-16 0 
    4.602567 9.276310e-03 1.313700e-16 0 
    4.623810 9.340756e-03 1.310700e-16 0 
    4.645151 9.276137e-03 1.289700e-16 0 
    4.666595 9.254545e-03 1.274900e-16 0 
    4.688134 9.276435e-03 1.266200e-16 0 
    4.709772 9.233607e-03 1.248800e-16 0 
    4.720628 9.149203e-03 1.231700e-16 0 
    4.742421 9.212133e-03 1.228800e-16 0 
    4.764310 9.149070e-03 1.209200e-16 0 
    4.786299 9.127572e-03 1.195300e-16 0 
    4.808395 9.128037e-03 1.184400e-16 0 
    4.830588 9.044482e-03 1.162800e-16 0 
    4.841723 9.086228e-03 1.162800e-16 0 
    4.864070 9.044115e-03 1.146800e-16 0 
    4.886525 9.002849e-03 1.131100e-16 0 
    4.909079 8.981719e-03 1.118100e-16 0 
    4.931736 8.961042e-03 1.105300e-16 0 
    4.943104 8.920140e-03 1.095200e-16 0 
    4.965924 8.899938e-03 1.082700e-16 0 
    4.988845 8.940806e-03 1.077700e-16 0 
    5.011870 8.886208e-03 1.061300e-16 0 
    5.023429 8.852381e-03 1.052400e-16 0 
    5.046614 8.806094e-03 1.037300e-16 0 
    5.069906 8.740198e-03 1.020100e-16 0 
    5.081593 8.706516e-03 1.011500e-16 0 
    5.093306 8.713839e-03 1.007700e-16 0 
    5.105052 8.721065e-03 1.003900e-16 0 
    5.116820 8.687486e-03 9.954400e-17 0 
    5.128614 8.654371e-03 9.870900e-17 0 
    5.140436 8.641204e-03 9.810600e-17 0 
    5.152285 8.627995e-03 9.750600e-17 0 
    5.164162 8.614748e-03 9.690900e-17 0 
    5.176071 8.601479e-03 9.631500e-17 0 
    5.188002 8.607982e-03 9.594500e-17 0 
    5.199961 8.594625e-03 9.535600e-17 0 
    5.211947 8.561491e-03 9.455200e-17 0 
    5.223961 8.548065e-03 9.397000e-17 0 
    5.236003 8.534699e-03 9.339200e-17 0 
    5.248072 8.521208e-03 9.281600e-17 0 
    5.260175 8.507707e-03 9.224300e-17 0 
    5.272300 8.513804e-03 9.188500e-17 0 
    5.284453 8.539508e-03 9.173900e-17 0 
    5.296634 8.525805e-03 9.117100e-17 0 
    5.308843 8.492535e-03 9.039800e-17 0 
    5.321080 8.459342e-03 8.963100e-17 0 
    5.333352 8.465125e-03 8.928000e-17 0 
    5.345646 8.470763e-03 8.892900e-17 0 
    5.357968 8.476462e-03 8.858000e-17 0 
    5.370318 8.462613e-03 8.802900e-17 0 
    5.382697 8.468159e-03 8.768200e-17 0 
    5.395105 8.473579e-03 8.733500e-17 0 
    5.407541 8.459566e-03 8.679000e-17 0 
    5.420011 8.464942e-03 8.644600e-17 0 
    5.432505 8.470271e-03 8.610300e-17 0 
    5.445027 8.456096e-03 8.556400e-17 0 
    5.457579 8.461271e-03 8.522300e-17 0 
    5.470159 8.485961e-03 8.507900e-17 0 
    5.482768 8.471519e-03 8.454400e-17 0 
    5.495406 8.476593e-03 8.420600e-17 0 
    5.508079 8.501171e-03 8.406200e-17 0 
    5.520776 8.506071e-03 8.372400e-17 0 
    5.533502 8.510934e-03 8.338700e-17 0 
    5.546257 8.555138e-03 8.343500e-17 0 
    5.559041 8.579685e-03 8.329000e-17 0 
    5.571855 8.564644e-03 8.276200e-17 0 
    5.584705 8.589120e-03 8.261700e-17 0 
    5.597578 8.633357e-03 8.266100e-17 0 
    5.610481 8.638054e-03 8.232600e-17 0 
    5.623413 8.682454e-03 8.236900e-17 0 
    5.636376 8.706964e-03 8.222200e-17 0 
    5.649368 8.731510e-03 8.207500e-17 0 
    5.662390 8.776191e-03 8.211600e-17 0 
    5.675448 8.821118e-03 8.215700e-17 0 
    5.688531 8.866147e-03 8.219700e-17 0 
    5.701643 8.911294e-03 8.223600e-17 0 
    5.714786 8.956670e-03 8.227500e-17 0 
    5.727959 9.023054e-03 8.250400e-17 0 
    5.741162 9.110624e-03 8.292200e-17 0 
    5.754402 9.177970e-03 8.315100e-17 0 
    5.767667 9.245615e-03 8.337900e-17 0 
    5.780962 9.335298e-03 8.380100e-17 0 
    5.794287 9.404011e-03 8.403000e-17 0 
    5.807643 9.516895e-03 8.464800e-17 0 
    5.821030 9.631073e-03 8.527000e-17 0 
    5.834448 9.746443e-03 8.589500e-17 0 
    5.847904 9.885952e-03 8.672400e-17 0 
    5.861383 1.002743e-02 8.756100e-17 0 
    5.874894 1.019417e-02 8.860800e-17 0 
    5.888436 1.036373e-02 8.966800e-17 0 
    5.902009 1.056019e-02 9.094800e-17 0 
    5.915614 1.076034e-02 9.224600e-17 0 
    5.924495 1.209534e-02 1.033800e-16 3 
    5.955481 -4.772186e-04 -4.036500e-18 3 
    5.986466 2.722715e-03 2.279200e-17 3 
    6.017451 1.150853e-02 9.534900e-17 3 
    6.048437 1.374080e-02 1.126800e-16 3 
    6.079422 1.155313e-02 9.377700e-17 3 
    6.110407 1.921864e-02 1.544200e-16 3 
    6.141393 2.287393e-02 1.819400e-16 3 
    6.172378 4.850034e-02 3.819100e-16 3 
    6.203363 5.561633e-02 4.335800e-16 3 
    6.234349 7.128875e-02 5.502500e-16 3 
    6.265334 5.690974e-02 4.349300e-16 3 
    6.296319 4.765958e-02 3.606600e-16 3 
    6.327305 3.758733e-02 2.816600e-16 3 
    6.358290 3.019287e-02 2.240500e-16 3 
    6.389276 2.394668e-02 1.759800e-16 3 
    6.420261 2.603027e-02 1.894500e-16 3 
    6.451246 2.708537e-02 1.952400e-16 3 
    6.482232 2.390060e-02 1.706400e-16 3 
    6.513217 2.386944e-02 1.688000e-16 3 
    6.544202 2.591436e-02 1.815300e-16 3 
    6.575188 2.893591e-02 2.007900e-16 3 
    6.606173 2.821570e-02 1.939600e-16 3 
    6.637158 2.219186e-02 1.511300e-16 3 
    6.668145 2.447456e-02 1.651300e-16 3 
    6.699129 2.422233e-02 1.619200e-16 3 
    6.730114 1.845144e-02 1.222100e-16 3 
    6.761100 2.594640e-02 1.702800e-16 3 
    6.792085 1.898810e-02 1.234800e-16 3 
    6.823071 1.406592e-02 9.064200e-17 3 
    6.854056 2.047775e-02 1.307700e-16 3 
    6.885041 2.143757e-02 1.356700e-16 3 
    6.916027 1.805318e-02 1.132300e-16 3 
    6.947012 1.744956e-02 1.084700e-16 3 
    6.977998 2.377003e-02 1.464500e-16 3 
    7.008983 2.865347e-02 1.749800e-16 3 
    7.039968 1.644505e-02 9.954400e-17 3 
    7.070954 2.343091e-02 1.405900e-16 3 
    7.101939 2.554325e-02 1.519300e-16 3 
    7.132924 3.310671e-02 1.952100e-16 3 
    7.163910 3.838001e-02 2.243500e-16 3 
    7.194895 3.553599e-02 2.059400e-16 3 
    7.225881 3.078848e-02 1.769000e-16 3 
    7.256866 3.532925e-02 2.012600e-16 3 
    7.287851 3.832794e-02 2.164900e-16 3 
    7.318838 4.684294e-02 2.623500e-16 3 
    7.349822 4.193563e-02 2.328900e-16 3 
    7.380807 3.751239e-02 2.065800e-16 3 
    7.411793 5.286730e-02 2.887100e-16 3 
    7.442778 4.703216e-02 2.547100e-16 3 
    7.473763 6.182827e-02 3.320700e-16 3 
    7.504748 6.520310e-02 3.473100e-16 3 
    7.533706 8.718590e-02 4.608400e-16 3 
    7.535734 7.611769e-02 4.021200e-16 3 
    7.566720 9.753051e-02 5.110300e-16 3 
    7.595799 9.382743e-02 4.878700e-16 3 
    7.597705 8.078053e-02 4.198200e-16 3 
    7.657894 1.073584e-01 5.492100e-16 3 
    7.719988 8.270843e-02 4.163300e-16 3 
    7.782082 9.394998e-02 4.654000e-16 3 
    7.844176 7.950228e-02 3.876200e-16 3 
    7.906271 7.491093e-02 3.595200e-16 3 
    7.968365 6.261437e-02 2.958400e-16 3 
    8.030459 5.166156e-02 2.403300e-16 3 
    8.092554 4.870449e-02 2.231100e-16 3 
    8.154648 4.288695e-02 1.934800e-16 3 
    8.216741 4.810206e-02 2.137400e-16 3 
    8.278836 3.807577e-02 1.666600e-16 3 
    8.340930 4.362572e-02 1.881200e-16 3 
    8.403025 4.747166e-02 2.016900e-16 3 
    8.465119 5.010583e-02 2.097700e-16 3 
    8.527213 5.346372e-02 2.205800e-16 3 
    8.589307 5.129413e-02 2.085800e-16 3 
    8.651402 5.621990e-02 2.253400e-16 3 
    8.713495 4.665338e-02 1.843400e-16 3 
    8.775590 4.523368e-02 1.762100e-16 3 
    8.837684 3.064046e-02 1.176900e-16 3 
    8.899778 2.688253e-02 1.018200e-16 3 
    8.961872 2.739550e-02 1.023300e-16 3 
    9.023966 3.393270e-02 1.250100e-16 3 
    9.086060 2.488830e-02 9.044100e-17 3 
    9.148155 1.794398e-02 6.432400e-17 3 
    9.210249 2.433594e-02 8.606500e-17 3 
    9.272344 1.660146e-02 5.792800e-17 3 
    9.334438 2.159647e-02 7.435800e-17 3 
    9.396532 2.234683e-02 7.592800e-17 3 
    9.458626 2.246571e-02 7.533300e-17 3 
    9.520720 2.170927e-02 7.185000e-17 3 
    9.582815 2.105180e-02 6.877400e-17 3 
    9.644909 2.268831e-02 7.316900e-17 3 
    9.707002 2.439445e-02 7.766800e-17 3 
    9.769098 2.229145e-02 7.007300e-17 3 
    9.831192 2.008145e-02 6.233100e-17 3 
    9.893286 1.987264e-02 6.091100e-17 3 
    9.955380 1.992400e-02 6.030900e-17 3 
   10.017470 2.023318e-02 6.048800e-17 3 
   10.079570 2.178730e-02 6.433400e-17 3 
   10.141659 1.968440e-02 5.741500e-17 3 
   10.203760 1.880834e-02 5.419400e-17 3 
   10.265850 1.657292e-02 4.717700e-17 3 
   10.327949 2.258451e-02 6.351900e-17 3 
   10.390041 1.655890e-02 4.601700e-17 3 
   10.452130 2.270517e-02 6.235000e-17 3 
   10.514230 3.143756e-02 8.531300e-17 3 
   10.576320 3.429098e-02 9.196700e-17 3 
   10.638420 2.695777e-02 7.145800e-17 3 
   10.700510 2.630430e-02 6.891900e-17 3 
   10.762600 2.574671e-02 6.668200e-17 3 
   10.824700 2.625247e-02 6.721400e-17 3 
   10.886791 2.828137e-02 7.158500e-17 3 
   10.948890 3.373173e-02 8.441500e-17 3 
   11.010980 4.661338e-02 1.153400e-16 3 
   11.073080 5.189804e-02 1.269800e-16 3 
   11.135170 5.337443e-02 1.291400e-16 3 
   11.197260 8.739726e-02 2.091200e-16 3 
   11.259360 1.235024e-01 2.922600e-16 3 
   11.321450 1.124823e-01 2.632700e-16 3 
   11.383550 8.419583e-02 1.949200e-16 3 
   11.445640 6.111712e-02 1.399600e-16 3 
   11.507740 5.486054e-02 1.242800e-16 3 
   11.569830 5.077792e-02 1.138000e-16 3 
   11.631920 4.480467e-02 9.934400e-17 3 
   11.694020 4.274809e-02 9.378000e-17 3 
   11.756110 3.660481e-02 7.945700e-17 3 
   11.818209 3.880174e-02 8.334300e-17 3 
   11.880299 3.541993e-02 7.528600e-17 3 
   11.942400 3.652854e-02 7.683700e-17 3 
   12.004490 3.951868e-02 8.226900e-17 3 
   12.066580 4.241736e-02 8.739700e-17 3 
   12.128680 3.814625e-02 7.779400e-17 3 
   12.190770 3.775710e-02 7.621800e-17 3 
   12.252870 3.758976e-02 7.511300e-17 3 
   12.314959 4.109685e-02 8.129500e-17 3 
   12.377051 5.331571e-02 1.044100e-16 3 
   12.439150 5.077288e-02 9.844000e-17 3 
   12.501240 5.335433e-02 1.024200e-16 3 
   12.563340 5.280717e-02 1.003700e-16 3 
   12.625430 5.465345e-02 1.028600e-16 3 
   12.687530 6.329475e-02 1.179600e-16 3 
   12.749620 6.741066e-02 1.244100e-16 3 
   12.811710 1.133277e-01 2.071300e-16 3 
   12.873810 1.237101e-01 2.239300e-16 3 
   12.935900 5.975622e-02 1.071300e-16 3 
   12.998000 4.427114e-02 7.861200e-17 3 
   13.060090 4.045540e-02 7.115500e-17 3 
   13.122180 3.945024e-02 6.873200e-17 3 
   13.184280 4.593216e-02 7.927300e-17 3 
   13.246370 4.281437e-02 7.320100e-17 3 
   13.308470 3.608608e-02 6.112300e-17 3 
   13.370559 3.239882e-02 5.436900e-17 3 
   13.432659 3.614320e-02 6.009300e-17 3 
   13.494750 3.315828e-02 5.462400e-17 3 
   13.556841 3.446452e-02 5.625700e-17 3 
   13.618941 3.573681e-02 5.780300e-17 3 
   13.681030 3.226946e-02 5.172200e-17 3 
   13.743130 3.280294e-02 5.210300e-17 3 
   13.805220 3.533429e-02 5.562000e-17 3 
   13.867320 2.872488e-02 4.481200e-17 3 
   13.929409 3.063386e-02 4.736500e-17 3 
   13.991500 3.759676e-02 5.761600e-17 3 
   14.053600 3.716888e-02 5.645800e-17 3 
   14.115691 3.696337e-02 5.565300e-17 3 
   14.177789 3.381117e-02 5.046200e-17 3 
   14.239880 3.311978e-02 4.900000e-17 3 
   14.301980 4.100001e-02 6.013300e-17 3 
   14.364070 3.420068e-02 4.972800e-17 3 
   14.426159 4.120867e-02 5.940300e-17 3 
   14.488261 3.861149e-02 5.518300e-17 3 
   14.541691 3.300480e-02 4.682400e-17 3 
   14.633380 3.736099e-02 5.234200e-17 3 
   14.725080 3.131863e-02 4.333200e-17 3 
   14.816770 3.123861e-02 4.268800e-17 3 
   14.908459 3.795719e-02 5.123300e-17 3 
   15.000150 2.945984e-02 3.927900e-17 3 
   15.091850 2.960020e-02 3.898800e-17 3 
   15.183541 3.334760e-02 4.339500e-17 3 
   15.275230 3.794456e-02 4.878600e-17 3 
   15.366930 3.656825e-02 4.645700e-17 3 
   15.458620 4.051878e-02 5.086700e-17 3 
   15.550309 8.730223e-02 1.083100e-16 3 
   15.642000 1.060491e-01 1.300300e-16 3 
   15.733700 5.896625e-02 7.146000e-17 3 
   15.825391 4.197174e-02 5.027700e-17 3 
   15.917080 4.406914e-02 5.218300e-17 3 
   16.008780 4.110491e-02 4.811700e-17 3 
   16.100470 4.275141e-02 4.947600e-17 3 
   16.192159 4.195413e-02 4.800500e-17 3 
   16.283859 4.941244e-02 5.590400e-17 3 
   16.375550 5.887423e-02 6.586500e-17 3 
   16.467239 7.165124e-02 7.926900e-17 3 
   16.558930 6.636144e-02 7.260600e-17 3 
   16.650631 6.164787e-02 6.670800e-17 3 
   16.742319 6.547837e-02 7.007900e-17 3 
   16.834009 6.467670e-02 6.846900e-17 3 
   16.925700 6.786218e-02 7.106500e-17 3 
   17.017400 7.599375e-02 7.872500e-17 3 
   17.109091 8.312593e-02 8.519300e-17 3 
   17.200781 7.702302e-02 7.809900e-17 3 
   17.292481 7.055013e-02 7.077900e-17 3 
   17.384170 7.383378e-02 7.329400e-17 3 
   17.475861 7.647461e-02 7.512100e-17 3 
   17.567561 6.706192e-02 6.518900e-17 3 
   17.659250 6.555796e-02 6.306700e-17 3 
   17.750941 6.845774e-02 6.517800e-17 3 
   17.842630 6.905110e-02 6.506900e-17 3 
   17.934330 6.669960e-02 6.221200e-17 3 
   18.026020 6.914993e-02 6.384300e-17 3 
   18.117709 6.076262e-02 5.553300e-17 3 
   18.209409 6.441987e-02 5.828400e-17 3 
   18.301100 6.816947e-02 6.106000e-17 3 
   18.392789 7.105204e-02 6.300900e-17 3 
   18.484489 6.753802e-02 5.930000e-17 3 
   18.576180 7.341573e-02 6.382600e-17 3 
   18.667870 1.008435e-01 8.681200e-17 3 
   18.759559 2.127011e-01 1.813200e-16 3 
   18.851259 1.733376e-01 1.463300e-16 3 
   18.942950 9.756494e-02 8.156800e-17 3 
   19.034639 8.994894e-02 7.447800e-17 3 
   19.126341 7.971028e-02 6.536900e-17 3 
   19.218031 8.643371e-02 7.020800e-17 3 
   19.309719 8.415941e-02 6.771300e-17 3 
   19.401409 7.933567e-02 6.323000e-17 3 
   19.493111 7.982776e-02 6.302500e-17 3 
   19.584800 8.672519e-02 6.783100e-17 3 
   19.676491 9.490945e-02 7.354200e-17 3 
   19.768191 8.538312e-02 6.554800e-17 3 
   19.859880 8.840151e-02 6.724000e-17 3 
   19.951570 9.215341e-02 6.945100e-17 3 
   20.043261 8.776512e-02 6.554000e-17 3 
   20.134961 9.289177e-02 6.873800e-17 3 
   20.226650 9.414609e-02 6.903600e-17 3 
   20.318341 9.625385e-02 6.994600e-17 3 
   20.410041 9.198138e-02 6.624200e-17 3 
   20.555241 8.770487e-02 6.227300e-17 3 
   20.730739 1.005675e-01 7.020200e-17 3 
   20.906339 1.015413e-01 6.969600e-17 3 
   21.082041 9.592913e-02 6.475100e-17 3 
   21.257830 1.034660e-01 6.868800e-17 3 
   21.433709 1.028330e-01 6.715200e-17 3 
   21.609689 9.888273e-02 6.352500e-17 3 
   21.785761 1.058433e-01 6.690200e-17 3 
   21.961930 1.124238e-01 6.992600e-17 3 
   22.138200 1.133438e-01 6.938000e-17 3 
   22.314559 1.126870e-01 6.789200e-17 3 
   22.491020 1.184287e-01 7.023600e-17 3 
   22.667570 1.256801e-01 7.338000e-17 3 
   22.844219 1.287111e-01 7.399200e-17 3 
   23.020969 1.310056e-01 7.415900e-17 3 
   23.197809 1.308860e-01 7.296600e-17 3 
   23.374750 1.324058e-01 7.270000e-17 3 
   23.551791 1.388196e-01 7.508000e-17 3 
   23.728920 1.365462e-01 7.275200e-17 3 
   23.906161 1.328424e-01 6.973300e-17 3 
   24.083481 1.424012e-01 7.365400e-17 3 
   24.260909 1.475246e-01 7.519200e-17 3 
   24.438441 1.462654e-01 7.347100e-17 3 
   24.616061 1.438324e-01 7.121000e-17 3 
   24.793780 1.530169e-01 7.467500e-17 3 
   24.971600 1.539891e-01 7.408300e-17 3 
   25.149509 1.609686e-01 7.634900e-17 3 
   25.327530 1.596482e-01 7.466200e-17 3 
   25.505641 1.591258e-01 7.338200e-17 3 
   25.683861 1.636486e-01 7.442400e-17 3 
   25.862169 1.703142e-01 7.639100e-17 3 
   26.040581 1.799302e-01 7.960200e-17 3 
   26.219091 1.814156e-01 7.917000e-17 3 
   26.397700 1.740494e-01 7.493100e-17 3 
   26.576409 1.784881e-01 7.581200e-17 3 
   26.755222 1.876102e-01 7.862500e-17 3 
   26.934131 1.830304e-01 7.569000e-17 3 
   27.113141 1.882502e-01 7.682400e-17 3 
   27.292250 1.914060e-01 7.709000e-17 3 
   27.471459 1.917670e-01 7.623100e-17 3 
   27.650781 1.991745e-01 7.815200e-17 3 
   27.830191 1.994388e-01 7.725000e-17 3 
   28.009700 2.058903e-01 7.873000e-17 3 
   28.189319 2.168248e-01 8.185800e-17 3 
   28.369041 2.095008e-01 7.809400e-17 3 
   28.548850 2.165281e-01 7.970000e-17 3 
   28.728769 2.161131e-01 7.855400e-17 3 
   28.908791 2.208859e-01 7.929200e-17 3 
   29.088922 2.249615e-01 7.975800e-17 3 
   29.269150 2.368872e-01 8.295500e-17 3 
   29.449472 2.360192e-01 8.164200e-17 3 
   29.629909 2.373693e-01 8.111200e-17 3 
   29.810441 2.437719e-01 8.229400e-17 3 
   29.991078 2.354169e-01 7.851900e-17 3 
   30.171819 2.393584e-01 7.888000e-17 3 
   30.352659 2.548763e-01 8.299600e-17 3 
   30.533609 2.503416e-01 8.055600e-17 3 
   30.714659 2.600990e-01 8.271200e-17 3 
   30.895809 2.642515e-01 8.305000e-17 3 
   31.077069 2.747141e-01 8.533400e-17 3 
   31.258441 2.699440e-01 8.288200e-17 3 
   31.439909 2.691697e-01 8.169300e-17 3 
   31.621481 2.841001e-01 8.523700e-17 3 
   31.803150 2.894742e-01 8.586000e-17 3 
   31.984941 2.846155e-01 8.346200e-17 3 
   32.166822 3.004437e-01 8.711000e-17 3 
   32.348819 3.065320e-01 8.787800e-17 3 
   32.530909 3.045567e-01 8.633700e-17 3 
   32.713119 3.090481e-01 8.663700e-17 3 
   32.895431 3.199401e-01 8.869900e-17 3 
   33.077838 3.223456e-01 8.838300e-17 3 
   33.260359 3.509067e-01 9.516100e-17 3 
   33.442991 5.107886e-01 1.370100e-16 3 
   33.625728 6.331108e-01 1.679800e-16 3 
   33.808572 3.689515e-01 9.683600e-17 3 
   33.991519 3.683143e-01 9.563100e-17 3 
   34.174569 3.399059e-01 8.731200e-17 3 
   34.357731 3.360240e-01 8.539700e-17 3 
   34.541013 3.776461e-01 9.495900e-17 3 
   34.724381 4.495962e-01 1.118600e-16 3 
   34.907872 6.622059e-01 1.630300e-16 3 
