# NGC 6052       
# 
# An Atlas of Galaxy Spectral Energy Distributions from the Ultraviolet to the Mid-Infrared
# Brown et al. (2014)
# http://dx.doi.org/10.5072/03/529D3551F0117
# http://dx.doi.org/10.17909/t9-5bxk-dh29
# 
# The Spectral Energy Distributions of Active Galactic Nuclei
# Brown et al. (2019)
# http://dx.doi.org/10.17909/t9-3dbt-8734
# 
# Column 1: Observed wavelength (um)
# Column 2: f_nu (Jy)
# Column 3: f_lam (erg/s/cm2/A)
# Column 4: Source (0 = model, 1 = Optical Spectrun, 2 = Akari, 3 = Spitzer IRS)
# 
    0.010162 1.953316e-16 5.674600e-25 0 
    0.010351 3.074546e-16 8.608700e-25 0 
    0.010568 4.383171e-16 1.177400e-24 0 
    0.010765 6.350897e-16 1.644100e-24 0 
    0.010965 9.372025e-16 2.338500e-24 0 
    0.011169 1.580664e-15 3.801300e-24 0 
    0.011588 2.991126e-15 6.682500e-24 0 
    0.011995 5.233875e-15 1.091300e-23 0 
    0.012303 2.436907e-14 4.829900e-23 0 
    0.012706 3.915894e-14 7.276700e-23 0 
    0.012912 4.795137e-14 8.628500e-23 0 
    0.013002 5.380700e-14 9.548600e-23 0 
    0.013305 7.142290e-14 1.210400e-22 0 
    0.013397 8.908770e-14 1.489100e-22 0 
    0.013614 1.061201e-13 1.717700e-22 0 
    0.013932 1.606377e-13 2.482800e-22 0 
    0.014223 2.078703e-13 3.082700e-22 0 
    0.014521 6.191677e-13 8.809200e-22 0 
    0.014928 1.651283e-12 2.223000e-21 0 
    0.015346 2.191796e-12 2.792100e-21 0 
    0.015740 2.943241e-12 3.564000e-21 0 
    0.016144 3.934017e-12 4.528300e-21 0 
    0.016444 4.839801e-12 5.369500e-21 0 
    0.016866 6.439366e-12 6.791100e-21 0 
    0.017258 8.371349e-12 8.432100e-21 0 
    0.017579 9.949557e-12 9.659100e-21 0 
    0.017989 1.336053e-11 1.238600e-20 0 
    0.018281 1.617392e-11 1.451900e-20 0 
    0.018493 1.840026e-11 1.614100e-20 0 
    0.018880 2.370422e-11 1.995000e-20 0 
    0.019409 3.257028e-11 2.593800e-20 0 
    0.019724 3.951960e-11 3.047500e-20 0 
    0.020091 5.021385e-11 3.732000e-20 0 
    0.020512 6.439178e-11 4.591300e-20 0 
    0.020845 7.741446e-11 5.344900e-20 0 
    0.021330 1.001842e-10 6.606000e-20 0 
    0.021928 1.468300e-10 9.160900e-20 0 
    0.022336 1.852737e-10 1.114100e-19 0 
    0.022646 2.166755e-10 1.267500e-19 0 
    0.023067 2.740246e-10 1.545000e-19 0 
    0.023388 4.166853e-10 2.285300e-19 0 
    0.023768 7.564814e-10 4.017300e-19 0 
    0.024378 1.158285e-09 5.847100e-19 0 
    0.025003 1.451453e-09 6.965300e-19 0 
    0.025586 2.026842e-09 9.288300e-19 0 
    0.026122 2.337989e-09 1.027900e-18 0 
    0.026424 2.876233e-09 1.235800e-18 0 
    0.026792 4.413822e-09 1.844700e-18 0 
    0.027353 5.699436e-09 2.285300e-18 0 
    0.027861 7.207862e-09 2.785700e-18 0 
    0.028314 7.617589e-09 2.850600e-18 0 
    0.028840 1.124104e-08 4.054500e-18 0 
    0.029444 1.485286e-08 5.139700e-18 0 
    0.030061 1.713256e-08 5.687700e-18 0 
    0.030549 1.844209e-08 5.928400e-18 0 
    0.031261 2.569353e-08 7.887500e-18 0 
    0.032285 3.604347e-08 1.037400e-17 0 
    0.033343 5.174110e-08 1.396200e-17 0 
    0.034356 6.604366e-08 1.678600e-17 0 
    0.035318 8.314077e-08 1.999600e-17 0 
    0.036224 1.431543e-07 3.272900e-17 0 
    0.037154 2.740501e-07 5.955800e-17 0 
    0.038107 3.387076e-07 6.997400e-17 0 
    0.039084 3.402638e-07 6.682500e-17 0 
    0.040087 6.277887e-07 1.172000e-16 0 
    0.041115 9.589884e-07 1.701900e-16 0 
    0.042073 1.147698e-06 1.945100e-16 0 
    0.042855 1.218490e-06 1.990400e-16 0 
    0.043652 1.354618e-06 2.132700e-16 0 
    0.044771 1.926670e-06 2.883600e-16 0 
    0.045814 2.337850e-06 3.341500e-16 0 
    0.046774 2.403379e-06 3.295600e-16 0 
    0.047753 2.869591e-06 3.775200e-16 0 
    0.048753 3.739506e-06 4.719900e-16 0 
    0.049774 3.696770e-06 4.476500e-16 0 
    0.050816 5.221772e-06 6.066500e-16 0 
    0.051404 4.895609e-06 5.558200e-16 0 
    0.052000 8.124979e-06 9.014400e-16 0 
    0.052845 8.586668e-06 9.224399e-16 0 
    0.053827 9.011906e-06 9.331200e-16 0 
    0.054828 8.371816e-06 8.354800e-16 0 
    0.055847 9.116195e-06 8.768700e-16 0 
    0.056885 1.329848e-05 1.232900e-15 0 
    0.057943 1.651277e-05 1.475500e-15 0 
    0.058884 1.789834e-05 1.548600e-15 0 
    0.059979 2.017467e-05 1.682400e-15 0 
    0.060954 1.882836e-05 1.520300e-15 0 
    0.061944 1.980690e-05 1.548600e-15 0 
    0.062951 2.740428e-05 2.074600e-15 0 
    0.063973 2.810623e-05 2.060300e-15 0 
    0.065013 3.371490e-05 2.393000e-15 0 
    0.066069 3.530358e-05 2.426300e-15 0 
    0.066834 3.457886e-05 2.322400e-15 0 
    0.067608 4.109796e-05 2.697400e-15 0 
    0.068549 4.643204e-05 2.964400e-15 0 
    0.069663 4.323317e-05 2.672600e-15 0 
    0.070632 5.343423e-05 3.213200e-15 0 
    0.071614 4.686141e-05 2.741200e-15 0 
    0.072778 6.365323e-05 3.605300e-15 0 
    0.073790 6.883524e-05 3.792600e-15 0 
    0.074645 7.308259e-05 3.934900e-15 0 
    0.075683 7.547675e-05 3.953100e-15 0 
    0.076736 7.976445e-05 4.063800e-15 0 
    0.077625 7.582666e-05 3.775200e-15 0 
    0.078705 8.970635e-05 4.344500e-15 0 
    0.079799 8.746071e-05 4.120400e-15 0 
    0.080724 9.904221e-05 4.559700e-15 0 
    0.081846 1.076001e-04 4.818800e-15 0 
    0.082794 1.139755e-04 4.988100e-15 0 
    0.083753 1.215671e-04 5.199200e-15 0 
    0.084723 1.027577e-04 4.294700e-15 0 
    0.085901 1.323765e-04 5.381900e-15 0 
    0.086896 1.363997e-04 5.419200e-15 0 
    0.087902 1.481890e-04 5.753600e-15 0 
    0.088920 1.558898e-04 5.914800e-15 0 
    0.089950 1.636136e-04 6.066500e-15 0 
    0.090991 1.717167e-04 6.222100e-15 0 
    0.091833 1.753143e-04 6.236500e-15 0 
    0.092897 1.773463e-04 6.165100e-15 0 
    0.093972 4.303512e-04 1.462000e-14 0 
    0.095060 7.208037e-04 2.393000e-14 0 
    0.095940 1.044279e-03 3.403600e-14 0 
    0.097051 1.305616e-03 4.158500e-14 0 
    0.097949 1.471689e-03 4.601900e-14 0 
    0.099083 5.543909e-04 1.694100e-14 0 
    0.100000 1.281800e-03 3.845400e-14 0 
    0.101158 1.311658e-03 3.845400e-14 0 
    0.102094 1.745084e-03 5.022700e-14 0 
    0.103039 1.818946e-03 5.139700e-14 0 
    0.104232 1.204526e-03 3.326100e-14 0 
    0.105196 1.632338e-03 4.425200e-14 0 
    0.106170 2.459340e-03 6.545400e-14 0 
    0.107152 2.453684e-03 6.411200e-14 0 
    0.108143 2.107735e-03 5.406800e-14 0 
    0.109144 2.431164e-03 6.122600e-14 0 
    0.110154 2.137064e-03 5.283700e-14 0 
    0.111173 2.653488e-03 6.440800e-14 0 
    0.112202 2.617104e-03 6.236500e-14 0 
    0.113240 2.623091e-03 6.136700e-14 0 
    0.114288 2.397832e-03 5.507300e-14 0 
    0.115345 2.963570e-03 6.682500e-14 0 
    0.116413 2.856397e-03 6.323200e-14 0 
    0.117220 2.977297e-03 6.500400e-14 0 
    0.118304 3.060656e-03 6.560500e-14 0 
    0.119399 2.181804e-03 4.591300e-14 0 
    0.120504 3.089001e-03 6.381700e-14 0 
    0.121339 2.557510e-03 5.211200e-14 0 
    0.122462 2.181805e-03 4.364500e-14 0 
    0.123311 1.745096e-03 3.443000e-14 0 
    0.124451 2.690378e-03 5.211200e-14 0 
    0.125314 3.497977e-03 6.682500e-14 0 
    0.126474 3.782870e-03 7.094800e-14 0 
    0.127350 3.739498e-03 6.917300e-14 0 
    0.128529 3.563025e-03 6.470500e-14 0 
    0.129420 4.254214e-03 7.619700e-14 0 
    0.130617 4.475219e-03 7.869300e-14 0 
    0.131522 3.853137e-03 6.682500e-14 0 
    0.132434 3.915763e-03 6.697900e-14 0 
    0.133660 4.697005e-03 7.887500e-14 0 
    0.134586 4.590054e-03 7.602200e-14 0 
    0.135519 4.313359e-03 7.045900e-14 0 
    0.136773 4.929630e-03 7.905600e-14 0 
    0.137721 4.884464e-03 7.725700e-14 0 
    0.138676 4.568973e-03 7.127500e-14 0 
    0.139637 4.740408e-03 7.293500e-14 0 
    0.140605 4.828568e-03 7.327200e-14 0 
    0.141579 3.961083e-03 5.928400e-14 0 
    0.142561 4.025503e-03 5.942100e-14 0 
    0.143880 4.806395e-03 6.965300e-14 0 
    0.144877 4.861972e-03 6.949200e-14 0 
    0.145881 5.044441e-03 7.111100e-14 0 
    0.146555 5.257977e-03 7.344100e-14 0 
    0.146893 5.331094e-03 7.412000e-14 0 
    0.147911 5.257932e-03 7.210000e-14 0 
    0.148936 5.032858e-03 6.806700e-14 0 
    0.149969 5.150145e-03 6.869700e-14 0 
    0.151008 5.318820e-03 6.997400e-14 0 
    0.151705 5.392813e-03 7.029700e-14 0 
    0.152757 5.221761e-03 6.713300e-14 0 
    0.153462 4.828576e-03 6.150900e-14 0 
    0.154170 5.114640e-03 6.455600e-14 0 
    0.154882 5.079471e-03 6.352400e-14 0 
    0.155955 4.495915e-03 5.545500e-14 0 
    0.157036 4.495902e-03 5.469400e-14 0 
    0.158125 4.464961e-03 5.357200e-14 0 
    0.158855 4.850823e-03 5.766800e-14 0 
    0.159956 5.245882e-03 6.150900e-14 0 
    0.161065 5.518455e-03 6.381700e-14 0 
    0.162181 5.673049e-03 6.470500e-14 0 
    0.162930 5.608147e-03 6.337800e-14 0 
    0.164059 5.673039e-03 6.323200e-14 0 
    0.165196 5.595210e-03 6.150900e-14 0 
    0.165959 5.954113e-03 6.485400e-14 0 
    0.167109 6.078804e-03 6.530400e-14 0 
    0.168267 5.926736e-03 6.279700e-14 0 
    0.169044 6.321459e-03 6.636500e-14 0 
    0.169824 5.831967e-03 6.066500e-14 0 
    0.170216 6.573794e-03 6.806700e-14 0 
    0.171002 6.726952e-03 6.901400e-14 0 
    0.172187 6.513548e-03 6.590800e-14 0 
    0.173380 6.409326e-03 6.396400e-14 0 
    0.174181 6.163373e-03 6.094500e-14 0 
    0.175388 6.177517e-03 6.024700e-14 0 
    0.176198 6.604152e-03 6.381700e-14 0 
    0.177419 6.588975e-03 6.279700e-14 0 
    0.178238 6.915429e-03 6.530400e-14 0 
    0.179473 6.649869e-03 6.193500e-14 0 
    0.180302 6.711444e-03 6.193500e-14 0 
    0.181134 6.915373e-03 6.323200e-14 0 
    0.182390 7.274745e-03 6.560500e-14 0 
    0.183231 7.358886e-03 6.575600e-14 0 
    0.184502 6.947312e-03 6.122600e-14 0 
    0.185353 7.158361e-03 6.250800e-14 0 
    0.186209 7.043981e-03 6.094500e-14 0 
    0.187499 6.665202e-03 5.687700e-14 0 
    0.188365 6.758019e-03 5.714000e-14 0 
    0.189234 6.963278e-03 5.833600e-14 0 
    0.190546 7.461370e-03 6.165100e-14 0 
    0.191426 6.995446e-03 5.727100e-14 0 
    0.192309 6.789170e-03 5.507300e-14 0 
    0.193642 7.291460e-03 5.833600e-14 0 
    0.194536 7.076497e-03 5.609700e-14 0 
    0.195434 6.947315e-03 5.456800e-14 0 
    0.196336 7.358908e-03 5.727100e-14 0 
    0.197697 7.652667e-03 5.874000e-14 0 
    0.198610 7.174952e-03 5.456800e-14 0 
    0.199986 7.867165e-03 5.901200e-14 0 
    0.200909 8.181196e-03 6.080500e-14 0 
    0.201372 7.812900e-03 5.780100e-14 0 
    0.202768 7.741381e-03 5.648600e-14 0 
    0.203704 8.050369e-03 5.820200e-14 0 
    0.204645 7.939949e-03 5.687700e-14 0 
    0.205589 8.333328e-03 5.914800e-14 0 
    0.206538 7.921722e-03 5.571100e-14 0 
    0.207970 8.237973e-03 5.714000e-14 0 
    0.208930 7.617521e-03 5.235200e-14 0 
    0.209894 7.939974e-03 5.406800e-14 0 
    0.210863 8.705894e-03 5.874000e-14 0 
    0.211836 8.547096e-03 5.714000e-14 0 
    0.212814 8.218890e-03 5.444200e-14 0 
    0.213796 8.429755e-03 5.532700e-14 0 
    0.214783 8.606338e-03 5.596800e-14 0 
    0.215774 8.746154e-03 5.635600e-14 0 
    0.216770 8.468713e-03 5.406800e-14 0 
    0.217771 8.527346e-03 5.394300e-14 0 
    0.218776 8.888307e-03 5.571100e-14 0 
    0.219786 8.766231e-03 5.444200e-14 0 
    0.220801 8.806757e-03 5.419200e-14 0 
    0.221820 8.686001e-03 5.295900e-14 0 
    0.222844 9.074436e-03 5.482000e-14 0 
    0.223872 8.991122e-03 5.381900e-14 0 
    0.224905 8.786476e-03 5.211200e-14 0 
    0.225944 8.666025e-03 5.092600e-14 0 
    0.226986 9.011826e-03 5.247300e-14 0 
    0.228034 8.867823e-03 5.116100e-14 0 
    0.229087 8.706050e-03 4.976700e-14 0 
    0.230144 8.949708e-03 5.069100e-14 0 
    0.231207 9.136638e-03 5.127500e-14 0 
    0.232274 9.284464e-03 5.162700e-14 0 
    0.233346 8.886297e-03 4.896000e-14 0 
    0.233884 8.988952e-03 4.929800e-14 0 
    0.234963 8.803957e-03 4.784100e-14 0 
    0.236048 7.579595e-03 4.081000e-14 0 
    0.237137 8.602297e-03 4.589200e-14 0 
    0.238232 8.582036e-03 4.536400e-14 0 
    0.239332 8.924004e-03 4.673900e-14 0 
    0.240436 8.640205e-03 4.483800e-14 0 
    0.240991 8.720016e-03 4.504400e-14 0 
    0.242103 8.442741e-03 4.321200e-14 0 
    0.243220 8.839874e-03 4.483000e-14 0 
    0.244343 8.677904e-03 4.360500e-14 0 
    0.245471 8.838753e-03 4.400600e-14 0 
    0.246604 9.106624e-03 4.492400e-14 0 
    0.247172 8.858019e-03 4.349700e-14 0 
    0.248313 9.211084e-03 4.481600e-14 0 
    0.249460 9.167975e-03 4.419700e-14 0 
    0.250611 9.209644e-03 4.399100e-14 0 
    0.251189 9.041223e-03 4.298800e-14 0 
    0.252348 9.251148e-03 4.358300e-14 0 
    0.253513 8.339953e-03 3.893000e-14 0 
    0.254683 9.443467e-03 4.367700e-14 0 
    0.255270 8.914919e-03 4.104300e-14 0 
    0.255859 9.270333e-03 4.248300e-14 0 
    0.256448 9.079815e-03 4.141900e-14 0 
    0.257632 9.163187e-03 4.141600e-14 0 
    0.258226 9.037231e-03 4.065900e-14 0 
    0.259418 9.375690e-03 4.179500e-14 0 
    0.260615 9.374795e-03 4.140800e-14 0 
    0.261818 9.703520e-03 4.246700e-14 0 
    0.262422 9.680855e-03 4.217300e-14 0 
    0.263633 9.680058e-03 4.178300e-14 0 
    0.264850 9.568551e-03 4.092300e-14 0 
    0.265461 9.524195e-03 4.054600e-14 0 
    0.266686 9.745295e-03 4.110700e-14 0 
    0.267917 9.857481e-03 4.119900e-14 0 
    0.268534 1.020340e-02 4.244900e-14 0 
    0.269774 1.027334e-02 4.234800e-14 0 
    0.271019 9.878219e-03 4.034600e-14 0 
    0.271644 1.010782e-02 4.109400e-14 0 
    0.272898 1.015369e-02 4.090200e-14 0 
    0.273527 9.922233e-03 3.978600e-14 0 
    0.274789 1.008246e-02 4.005800e-14 0 
    0.276058 9.943369e-03 3.914300e-14 0 
    0.276694 1.001195e-02 3.923200e-14 0 
    0.277971 1.026787e-02 3.986600e-14 0 
    0.278612 9.715502e-03 3.754800e-14 0 
    0.279898 9.804613e-03 3.754500e-14 0 
    0.281190 1.000893e-02 3.797600e-14 0 
    0.281838 1.028891e-02 3.885900e-14 0 
    0.283139 1.019386e-02 3.814700e-14 0 
    0.283792 9.190179e-03 3.423300e-14 0 
    0.285102 9.666734e-03 3.567800e-14 0 
    0.285759 1.042966e-02 3.831700e-14 0 
    0.287078 1.054951e-02 3.840200e-14 0 
    0.287740 1.021433e-02 3.701100e-14 0 
    0.289068 1.023697e-02 3.675300e-14 0 
    0.289734 1.021312e-02 3.649900e-14 0 
    0.291072 1.054687e-02 3.734600e-14 0 
    0.291743 1.044973e-02 3.683200e-14 0 
    0.293089 1.054523e-02 3.682800e-14 0 
    0.293765 1.047225e-02 3.640500e-14 0 
    0.295801 1.086378e-02 3.724800e-14 0 
    0.297852 1.078784e-02 3.648000e-14 0 
    0.299916 1.076157e-02 3.589200e-14 0 
    0.301995 1.088453e-02 3.580400e-14 0 
    0.303389 1.088369e-02 3.547300e-14 0 
    0.305492 1.098284e-02 3.530500e-14 0 
    0.307610 1.105744e-02 3.505700e-14 0 
    0.309742 1.108140e-02 3.465100e-14 0 
    0.311889 1.113115e-02 3.432900e-14 0 
    0.314051 1.118080e-02 3.400900e-14 0 
    0.316228 1.123102e-02 3.369300e-14 0 
    0.317687 1.117812e-02 3.322700e-14 0 
    0.319890 1.128013e-02 3.307000e-14 0 
    0.322107 1.127863e-02 3.261200e-14 0 
    0.324340 1.114802e-02 3.179200e-14 0 
    0.325837 1.127594e-02 3.186200e-14 0 
    0.328095 1.124832e-02 3.134800e-14 0 
    0.330370 1.142923e-02 3.141500e-14 0 
    0.331894 1.148095e-02 3.126800e-14 0 
    0.334195 1.153236e-02 3.097700e-14 0 
    0.336512 1.161053e-02 3.075900e-14 0 
    0.337287 1.193521e-02 3.147400e-14 0 
    0.338065 1.196214e-02 3.140000e-14 0 
    0.338844 1.204450e-02 3.147100e-14 0 
    0.339625 1.155489e-02 3.005300e-14 0 
    0.340408 1.204316e-02 3.117900e-14 0 
    0.341193 1.147402e-02 2.956900e-14 0 
    0.341979 1.171368e-02 3.004800e-14 0 
    0.342768 1.152576e-02 2.943000e-14 0 
    0.343558 1.157856e-02 2.942900e-14 0 
    0.344350 1.198496e-02 3.032200e-14 0 
    0.345144 1.212289e-02 3.053000e-14 0 
    0.345939 1.173760e-02 2.942400e-14 0 
    0.346737 1.184592e-02 2.955900e-14 0 
    0.347536 1.214899e-02 3.017600e-14 0 
    0.348337 1.212052e-02 2.996700e-14 0 
    0.349140 1.226017e-02 3.017300e-14 0 
    0.349945 1.187060e-02 2.908000e-14 0 
    0.350752 1.240071e-02 3.023900e-14 0 
    0.351560 1.184199e-02 2.874400e-14 0 
    0.352371 1.189628e-02 2.874300e-14 0 
    0.353183 1.184099e-02 2.847800e-14 0 
    0.353997 1.186764e-02 2.841100e-14 0 
    0.354813 1.217126e-02 2.900400e-14 0 
    0.355631 1.203142e-02 2.853900e-14 0 
    0.356451 1.178414e-02 2.782400e-14 0 
    0.357273 1.175644e-02 2.763100e-14 0 
    0.358096 1.205730e-02 2.820800e-14 0 
    0.358922 1.225255e-02 2.853300e-14 0 
    0.359749 1.236515e-02 2.866300e-14 0 
    0.360579 1.253669e-02 2.892700e-14 0 
    0.361410 1.239252e-02 2.846300e-14 0 
    0.362243 1.259318e-02 2.879100e-14 0 
    0.363078 1.210906e-02 2.755700e-14 0 
    0.363915 1.180562e-02 2.674300e-14 0 
    0.364754 1.164281e-02 2.625300e-14 0 
    0.365595 1.207927e-02 2.711200e-14 0 
    0.366437 1.213408e-02 2.711000e-14 0 
    0.367282 1.233085e-02 2.742300e-14 0 
    0.368129 1.253053e-02 2.773900e-14 0 
    0.368725 1.232279e-02 2.719100e-14 1 
    0.369000 1.300156e-02 2.864600e-14 1 
    0.369275 1.202549e-02 2.645600e-14 1 
    0.369550 1.363532e-02 2.995300e-14 1 
    0.369825 1.400074e-02 3.071000e-14 1 
    0.370100 1.449322e-02 3.174300e-14 1 
    0.370375 1.412061e-02 3.088100e-14 1 
    0.370650 1.245408e-02 2.719600e-14 1 
    0.370925 1.309767e-02 2.855900e-14 1 
    0.371200 1.311618e-02 2.855700e-14 1 
    0.371475 1.273682e-02 2.769000e-14 1 
    0.371750 1.283814e-02 2.786900e-14 1 
    0.372025 1.305552e-02 2.829900e-14 1 
    0.372300 1.432968e-02 3.101500e-14 1 
    0.372575 1.263931e-02 2.731600e-14 1 
    0.372850 1.182897e-02 2.552700e-14 1 
    0.373125 1.198147e-02 2.581800e-14 1 
    0.373400 1.220224e-02 2.625500e-14 1 
    0.373675 1.226164e-02 2.634400e-14 1 
    0.373950 1.173759e-02 2.518100e-14 1 
    0.374225 1.285280e-02 2.753300e-14 1 
    0.374500 1.225553e-02 2.621500e-14 1 
    0.374775 1.179412e-02 2.519100e-14 1 
    0.375050 1.185972e-02 2.529400e-14 1 
    0.375325 1.289044e-02 2.745200e-14 1 
    0.375600 1.202385e-02 2.556900e-14 1 
    0.375875 1.214083e-02 2.578000e-14 1 
    0.376150 1.088945e-02 2.308900e-14 1 
    0.376425 1.084634e-02 2.296400e-14 1 
    0.376700 1.236211e-02 2.613500e-14 1 
    0.376975 1.337588e-02 2.823700e-14 1 
    0.377250 1.319141e-02 2.780700e-14 1 
    0.377525 1.561505e-02 3.286800e-14 1 
    0.377800 2.429361e-02 5.106100e-14 1 
    0.378075 4.444503e-02 9.328000e-14 1 
    0.378350 7.265752e-02 1.522700e-13 1 
    0.378625 9.025750e-02 1.888800e-13 1 
    0.378900 7.960212e-02 1.663400e-13 1 
    0.379175 5.264034e-02 1.098400e-13 1 
    0.379450 2.819461e-02 5.874600e-14 1 
    0.379725 1.874196e-02 3.899400e-14 1 
    0.380000 1.642358e-02 3.412100e-14 1 
    0.380275 1.455539e-02 3.019600e-14 1 
    0.380550 1.291200e-02 2.674800e-14 1 
    0.380825 1.326230e-02 2.743400e-14 1 
    0.381100 1.411173e-02 2.914900e-14 1 
    0.381375 1.501448e-02 3.096900e-14 1 
    0.381650 1.481086e-02 3.050500e-14 1 
    0.381925 1.584939e-02 3.259700e-14 1 
    0.382200 1.583084e-02 3.251200e-14 1 
    0.382475 1.285718e-02 2.636700e-14 1 
    0.382750 1.315402e-02 2.693700e-14 1 
    0.383025 1.289418e-02 2.636700e-14 1 
    0.383300 1.341174e-02 2.738600e-14 1 
    0.383575 1.502637e-02 3.063900e-14 1 
    0.383850 1.520263e-02 3.095400e-14 1 
    0.384125 1.586824e-02 3.226300e-14 1 
    0.384400 1.625446e-02 3.300100e-14 1 
    0.384675 1.616280e-02 3.276800e-14 1 
    0.384950 1.593054e-02 3.225100e-14 1 
    0.385225 1.470281e-02 2.972300e-14 1 
    0.385500 1.378013e-02 2.781800e-14 1 
    0.385775 1.383899e-02 2.789700e-14 1 
    0.386050 1.442506e-02 2.903700e-14 1 
    0.386325 1.572715e-02 3.161300e-14 1 
    0.386600 1.644753e-02 3.301400e-14 1 
    0.386875 1.819915e-02 3.647800e-14 1 
    0.387150 1.701046e-02 3.404700e-14 1 
    0.387425 1.801628e-02 3.600900e-14 1 
    0.387700 1.743761e-02 3.480300e-14 1 
    0.387975 1.763044e-02 3.513800e-14 1 
    0.388250 1.764138e-02 3.511000e-14 1 
    0.388525 1.669224e-02 3.317400e-14 1 
    0.388800 1.594745e-02 3.164900e-14 1 
    0.389075 1.496738e-02 2.966200e-14 1 
    0.389350 1.354588e-02 2.680700e-14 1 
    0.389625 1.460238e-02 2.885700e-14 1 
    0.389900 1.521740e-02 3.003000e-14 1 
    0.390175 1.465480e-02 2.887900e-14 1 
    0.390450 1.609732e-02 3.167700e-14 1 
    0.390725 1.707519e-02 3.355400e-14 1 
    0.391000 1.694890e-02 3.325900e-14 1 
    0.391275 1.825977e-02 3.578100e-14 1 
    0.391550 1.768958e-02 3.461500e-14 1 
    0.391825 1.723339e-02 3.367500e-14 1 
    0.392100 1.799760e-02 3.511900e-14 1 
    0.392375 2.068633e-02 4.030900e-14 1 
    0.392650 2.179815e-02 4.241600e-14 1 
    0.392925 2.121165e-02 4.121700e-14 1 
    0.393200 2.072239e-02 4.021000e-14 1 
    0.393475 1.867780e-02 3.619200e-14 1 
    0.393750 1.798608e-02 3.480300e-14 1 
    0.394025 1.726029e-02 3.335200e-14 1 
    0.394300 1.754818e-02 3.386100e-14 1 
    0.394575 1.778181e-02 3.426400e-14 1 
    0.394850 1.743295e-02 3.354500e-14 1 
    0.395125 1.921259e-02 3.691800e-14 1 
    0.395400 1.824658e-02 3.501300e-14 1 
    0.395675 1.634525e-02 3.132100e-14 1 
    0.395950 1.660105e-02 3.176700e-14 1 
    0.396225 1.730495e-02 3.306800e-14 1 
    0.396500 1.746366e-02 3.332500e-14 1 
    0.396775 1.776550e-02 3.385400e-14 1 
    0.397050 1.852793e-02 3.525800e-14 1 
    0.397325 1.967393e-02 3.738700e-14 1 
    0.397600 1.922534e-02 3.648400e-14 1 
    0.397875 1.870526e-02 3.544800e-14 1 
    0.398150 1.858687e-02 3.517500e-14 1 
    0.398425 1.824321e-02 3.447700e-14 1 
    0.398700 1.931385e-02 3.645000e-14 1 
    0.398975 1.797366e-02 3.387400e-14 1 
    0.399250 1.768496e-02 3.328400e-14 1 
    0.399525 1.705383e-02 3.205200e-14 1 
    0.399800 1.599892e-02 3.002800e-14 1 
    0.400075 1.775492e-02 3.327800e-14 1 
    0.400350 1.694535e-02 3.171700e-14 1 
    0.400625 1.842117e-02 3.443200e-14 1 
    0.400900 1.786626e-02 3.334900e-14 1 
    0.401175 1.798842e-02 3.353100e-14 1 
    0.401450 1.915949e-02 3.566500e-14 1 
    0.401725 1.831051e-02 3.403800e-14 1 
    0.402000 1.743492e-02 3.236600e-14 1 
    0.402275 1.774575e-02 3.289800e-14 1 
    0.402550 1.636616e-02 3.029900e-14 1 
    0.402825 1.716957e-02 3.174300e-14 1 
    0.403100 1.751909e-02 3.234500e-14 1 
    0.403375 1.838096e-02 3.389000e-14 1 
    0.403650 1.692171e-02 3.115700e-14 1 
    0.403925 1.801508e-02 3.312500e-14 1 
    0.404200 1.773682e-02 3.256900e-14 1 
    0.404475 1.784767e-02 3.272800e-14 1 
    0.404750 1.799809e-02 3.295900e-14 1 
    0.405025 1.907846e-02 3.489000e-14 1 
    0.405300 1.878077e-02 3.429900e-14 1 
    0.405575 2.076481e-02 3.787100e-14 1 
    0.405850 2.087588e-02 3.802200e-14 1 
    0.406125 2.007894e-02 3.652100e-14 1 
    0.406400 2.086423e-02 3.789800e-14 1 
    0.406675 1.956830e-02 3.549600e-14 1 
    0.406950 1.945290e-02 3.523900e-14 1 
    0.407225 2.021218e-02 3.656500e-14 1 
    0.407500 2.083674e-02 3.764400e-14 1 
    0.407775 2.095189e-02 3.780100e-14 1 
    0.408050 2.043125e-02 3.681200e-14 1 
    0.408325 1.979299e-02 3.561400e-14 1 
    0.408600 2.057429e-02 3.697000e-14 1 
    0.408875 2.085332e-02 3.742100e-14 1 
    0.409150 2.014257e-02 3.609700e-14 1 
    0.409425 1.993721e-02 3.568100e-14 1 
    0.409700 2.052744e-02 3.668800e-14 1 
    0.409975 2.210862e-02 3.946100e-14 1 
    0.410250 2.186114e-02 3.896700e-14 1 
    0.410525 2.032987e-02 3.618900e-14 1 
    0.410800 2.096632e-02 3.727200e-14 1 
    0.411075 1.959241e-02 3.478300e-14 1 
    0.411350 2.118946e-02 3.756800e-14 1 
    0.411625 2.070497e-02 3.666000e-14 1 
    0.411900 2.189200e-02 3.871000e-14 1 
    0.412175 2.190992e-02 3.869000e-14 1 
    0.412450 2.238430e-02 3.947500e-14 1 
    0.412725 2.054324e-02 3.618000e-14 1 
    0.413000 2.052969e-02 3.610800e-14 1 
    0.413275 2.106031e-02 3.699200e-14 1 
    0.413550 2.100569e-02 3.684700e-14 1 
    0.413825 1.955745e-02 3.426100e-14 1 
    0.414100 2.056660e-02 3.598100e-14 1 
    0.414375 1.973997e-02 3.448900e-14 1 
    0.414650 1.947618e-02 3.398300e-14 1 
    0.414925 1.988193e-02 3.464500e-14 1 
    0.415200 1.816312e-02 3.160800e-14 1 
    0.415475 1.821711e-02 3.166000e-14 1 
    0.415750 1.904613e-02 3.305700e-14 1 
    0.416025 1.868883e-02 3.239400e-14 1 
    0.416300 1.960087e-02 3.393000e-14 1 
    0.416575 2.328952e-02 4.026200e-14 1 
    0.416850 2.298086e-02 3.967600e-14 1 
    0.417125 2.057296e-02 3.547200e-14 1 
    0.417400 1.900538e-02 3.272600e-14 1 
    0.417675 1.869548e-02 3.215000e-14 1 
    0.417950 1.887732e-02 3.242000e-14 1 
    0.418225 1.900304e-02 3.259300e-14 1 
    0.418500 1.931702e-02 3.308800e-14 1 
    0.418775 1.935762e-02 3.311400e-14 1 
    0.419050 2.070358e-02 3.537000e-14 1 
    0.419325 1.986215e-02 3.388800e-14 1 
    0.419600 1.954782e-02 3.330800e-14 1 
    0.419875 2.028157e-02 3.451300e-14 1 
    0.420150 2.137083e-02 3.631900e-14 1 
    0.420425 2.049853e-02 3.479100e-14 1 
    0.420700 2.017905e-02 3.420400e-14 1 
    0.420975 2.011328e-02 3.404800e-14 1 
    0.421250 2.045366e-02 3.457900e-14 1 
    0.421525 2.083752e-02 3.518200e-14 1 
    0.421800 2.135754e-02 3.601300e-14 1 
    0.422075 2.072922e-02 3.490800e-14 1 
    0.422350 2.172663e-02 3.654000e-14 1 
    0.422625 2.159954e-02 3.627900e-14 1 
    0.422900 2.103270e-02 3.528100e-14 1 
    0.423175 2.132330e-02 3.572200e-14 1 
    0.423450 2.204615e-02 3.688500e-14 1 
    0.423725 2.068095e-02 3.455600e-14 1 
    0.424000 2.091873e-02 3.490800e-14 1 
    0.424275 2.097948e-02 3.496400e-14 1 
    0.424550 2.079580e-02 3.461300e-14 1 
    0.424825 2.055625e-02 3.417000e-14 1 
    0.425100 2.040698e-02 3.387800e-14 1 
    0.425375 1.948464e-02 3.230500e-14 1 
    0.425650 2.042600e-02 3.382200e-14 1 
    0.425925 2.106436e-02 3.483400e-14 1 
    0.426200 2.056904e-02 3.397100e-14 1 
    0.426475 2.137222e-02 3.525200e-14 1 
    0.426750 2.119946e-02 3.492200e-14 1 
    0.427025 2.013573e-02 3.312700e-14 1 
    0.427300 2.061023e-02 3.386400e-14 1 
    0.427575 2.099083e-02 3.444500e-14 1 
    0.427850 2.079024e-02 3.407200e-14 1 
    0.428125 2.153914e-02 3.525400e-14 1 
    0.428400 2.109821e-02 3.448800e-14 1 
    0.428675 2.122270e-02 3.464700e-14 1 
    0.428950 2.164492e-02 3.529100e-14 1 
    0.429225 2.073248e-02 3.376000e-14 1 
    0.429500 2.062439e-02 3.354100e-14 1 
    0.429775 2.011208e-02 3.266600e-14 1 
    0.430050 2.051634e-02 3.328000e-14 1 
    0.430325 2.117405e-02 3.430300e-14 1 
    0.430600 2.092300e-02 3.385300e-14 1 
    0.430875 2.044909e-02 3.304400e-14 1 
    0.431150 2.059045e-02 3.323000e-14 1 
    0.431425 2.107026e-02 3.396100e-14 1 
    0.431700 2.068837e-02 3.330300e-14 1 
    0.431975 2.058847e-02 3.310000e-14 1 
    0.432250 2.094975e-02 3.363800e-14 1 
    0.432525 2.095958e-02 3.361100e-14 1 
    0.432800 2.097812e-02 3.359800e-14 1 
    0.433075 2.076473e-02 3.321400e-14 1 
    0.433350 2.022647e-02 3.231200e-14 1 
    0.433625 2.041574e-02 3.257300e-14 1 
    0.433900 2.082069e-02 3.317700e-14 1 
    0.434175 2.063408e-02 3.283800e-14 1 
    0.434450 2.047337e-02 3.254100e-14 1 
    0.434725 2.047472e-02 3.250200e-14 1 
    0.435000 2.097875e-02 3.326000e-14 1 
    0.435275 2.146947e-02 3.399500e-14 1 
    0.435550 2.065874e-02 3.267000e-14 1 
    0.435825 2.115273e-02 3.340900e-14 1 
    0.436100 2.052964e-02 3.238400e-14 1 
    0.436375 2.023182e-02 3.187400e-14 1 
    0.436650 2.082678e-02 3.277000e-14 1 
    0.436925 2.010277e-02 3.159100e-14 1 
    0.437200 1.943359e-02 3.050100e-14 1 
    0.437475 1.995054e-02 3.127300e-14 1 
    0.437750 1.997819e-02 3.127700e-14 1 
    0.438025 2.005382e-02 3.135600e-14 1 
    0.438300 2.034028e-02 3.176400e-14 1 
    0.438575 2.007408e-02 3.130900e-14 1 
    0.438850 1.931350e-02 3.008500e-14 1 
    0.439125 1.983971e-02 3.086600e-14 1 
    0.439400 1.971912e-02 3.064000e-14 1 
    0.439675 1.912972e-02 2.968700e-14 1 
    0.439950 1.976078e-02 3.062800e-14 1 
    0.440225 2.219827e-02 3.436300e-14 1 
    0.440500 2.631768e-02 4.068900e-14 1 
    0.440775 3.135527e-02 4.841700e-14 1 
    0.441050 3.074664e-02 4.741800e-14 1 
    0.441325 2.619302e-02 4.034500e-14 1 
    0.441600 2.094023e-02 3.221400e-14 1 
    0.441875 1.933531e-02 2.970800e-14 1 
    0.442150 1.975233e-02 3.031100e-14 1 
    0.442425 1.985129e-02 3.042500e-14 1 
    0.442700 2.108454e-02 3.227500e-14 1 
    0.442975 2.114868e-02 3.233300e-14 1 
    0.443250 2.133277e-02 3.257400e-14 1 
    0.443525 2.095336e-02 3.195500e-14 1 
    0.443800 2.087628e-02 3.179800e-14 1 
    0.444075 2.091136e-02 3.181200e-14 1 
    0.444350 2.084908e-02 3.167800e-14 1 
    0.444625 2.077143e-02 3.152100e-14 1 
    0.444900 2.176900e-02 3.299400e-14 1 
    0.445175 2.109502e-02 3.193300e-14 1 
    0.445450 2.057873e-02 3.111300e-14 1 
    0.445725 2.037965e-02 3.077400e-14 1 
    0.446000 2.084043e-02 3.143100e-14 1 
    0.446275 2.035761e-02 3.066500e-14 1 
    0.446550 2.032422e-02 3.057700e-14 1 
    0.446825 2.071728e-02 3.113000e-14 1 
    0.447100 2.129051e-02 3.195200e-14 1 
    0.447375 1.976159e-02 2.962100e-14 1 
    0.447650 2.093614e-02 3.134300e-14 1 
    0.447925 2.090568e-02 3.125900e-14 1 
    0.448200 2.062937e-02 3.080800e-14 1 
    0.448475 2.060441e-02 3.073300e-14 1 
    0.448750 2.090087e-02 3.113700e-14 1 
    0.449025 2.237752e-02 3.329600e-14 1 
    0.449300 2.239753e-02 3.328500e-14 1 
    0.449575 2.238992e-02 3.323300e-14 1 
    0.449850 2.228444e-02 3.303600e-14 1 
    0.450125 2.159647e-02 3.197700e-14 1 
    0.450400 2.150926e-02 3.180900e-14 1 
    0.450675 2.096413e-02 3.096500e-14 1 
    0.450950 2.147235e-02 3.167700e-14 1 
    0.451225 2.147819e-02 3.164700e-14 1 
    0.451500 2.102260e-02 3.093800e-14 1 
    0.451775 2.141016e-02 3.147000e-14 1 
    0.452050 2.113993e-02 3.103500e-14 1 
    0.452325 2.129728e-02 3.122800e-14 1 
    0.452600 2.154852e-02 3.155800e-14 1 
    0.452875 2.213530e-02 3.237800e-14 1 
    0.453150 2.082061e-02 3.041800e-14 1 
    0.453425 2.012219e-02 2.936200e-14 1 
    0.453700 2.026668e-02 2.953700e-14 1 
    0.453975 2.227869e-02 3.243000e-14 1 
    0.454250 2.233870e-02 3.247800e-14 1 
    0.454525 2.255031e-02 3.274600e-14 1 
    0.454800 2.205292e-02 3.198500e-14 1 
    0.455075 2.196086e-02 3.181300e-14 1 
    0.455350 2.160382e-02 3.125800e-14 1 
    0.455625 2.176002e-02 3.144600e-14 1 
    0.455900 1.999190e-02 2.885600e-14 1 
    0.456175 2.111824e-02 3.044500e-14 1 
    0.456450 2.207780e-02 3.179000e-14 1 
    0.456725 2.102109e-02 3.023200e-14 1 
    0.457000 2.109375e-02 3.030000e-14 1 
    0.457275 2.175202e-02 3.120800e-14 1 
    0.457550 2.185984e-02 3.132500e-14 1 
    0.457825 2.292506e-02 3.281200e-14 1 
    0.458100 2.201105e-02 3.146600e-14 1 
    0.458375 2.122437e-02 3.030500e-14 1 
    0.458650 2.199873e-02 3.137300e-14 1 
    0.458925 2.245055e-02 3.197900e-14 1 
    0.459200 2.179919e-02 3.101400e-14 1 
    0.459475 2.159730e-02 3.069000e-14 1 
    0.459750 2.197403e-02 3.118800e-14 1 
    0.460025 2.183738e-02 3.095700e-14 1 
    0.460300 2.281764e-02 3.230800e-14 1 
    0.460575 2.208761e-02 3.123700e-14 1 
    0.460850 2.236036e-02 3.158500e-14 1 
    0.461125 2.233106e-02 3.150600e-14 1 
    0.461400 2.183186e-02 3.076500e-14 1 
    0.461675 2.165257e-02 3.047600e-14 1 
    0.461950 2.165063e-02 3.043700e-14 1 
    0.462225 2.202253e-02 3.092300e-14 1 
    0.462500 2.303414e-02 3.230500e-14 1 
    0.462775 2.179513e-02 3.053100e-14 1 
    0.463050 2.186250e-02 3.058900e-14 1 
    0.463325 2.230064e-02 3.116500e-14 1 
    0.463600 2.139650e-02 2.986600e-14 1 
    0.463875 2.399975e-02 3.346000e-14 1 
    0.464150 2.357149e-02 3.282400e-14 1 
    0.464425 2.235992e-02 3.110000e-14 1 
    0.464700 2.302129e-02 3.198200e-14 1 
    0.464975 2.230626e-02 3.095200e-14 1 
    0.465250 2.235357e-02 3.098100e-14 1 
    0.465525 2.180210e-02 3.018100e-14 1 
    0.465800 2.122542e-02 2.934800e-14 1 
    0.466075 2.232358e-02 3.083000e-14 1 
    0.466350 2.131834e-02 2.940700e-14 1 
    0.466625 2.241041e-02 3.087700e-14 1 
    0.466900 2.143696e-02 2.950100e-14 1 
    0.467175 2.214535e-02 3.044000e-14 1 
    0.467450 2.144744e-02 2.944600e-14 1 
    0.467725 2.219388e-02 3.043500e-14 1 
    0.468000 2.180749e-02 2.987000e-14 1 
    0.468275 2.179365e-02 2.981600e-14 1 
    0.468550 2.192757e-02 2.996400e-14 1 
    0.468825 2.296657e-02 3.134700e-14 1 
    0.469100 2.259816e-02 3.080800e-14 1 
    0.469375 2.301976e-02 3.134600e-14 1 
    0.469650 2.262839e-02 3.077700e-14 1 
    0.469925 2.170312e-02 2.948400e-14 1 
    0.470200 2.310001e-02 3.134500e-14 1 
    0.470475 2.310196e-02 3.131100e-14 1 
    0.470750 2.203424e-02 2.982900e-14 1 
    0.471025 2.245861e-02 3.036800e-14 1 
    0.471300 2.312900e-02 3.123800e-14 1 
    0.471575 2.304555e-02 3.108900e-14 1 
    0.471850 2.211285e-02 2.979600e-14 1 
    0.472125 2.166682e-02 2.916100e-14 1 
    0.472400 2.231692e-02 3.000100e-14 1 
    0.472675 2.369685e-02 3.181900e-14 1 
    0.472950 2.396227e-02 3.213800e-14 1 
    0.473225 2.272338e-02 3.044100e-14 1 
    0.473500 2.274980e-02 3.044100e-14 1 
    0.473775 2.191804e-02 2.929400e-14 1 
    0.474050 2.199068e-02 2.935700e-14 1 
    0.474325 2.219694e-02 2.959800e-14 1 
    0.474600 2.219716e-02 2.956400e-14 1 
    0.474875 2.321211e-02 3.088000e-14 1 
    0.475150 2.252031e-02 2.992500e-14 1 
    0.475425 2.347988e-02 3.116400e-14 1 
    0.475700 2.377182e-02 3.151500e-14 1 
    0.475975 2.211829e-02 2.928900e-14 1 
    0.476250 2.259068e-02 2.988000e-14 1 
    0.476525 2.195372e-02 2.900400e-14 1 
    0.476800 2.315743e-02 3.055900e-14 1 
    0.477075 2.340113e-02 3.084500e-14 1 
    0.477350 2.331419e-02 3.069500e-14 1 
    0.477625 2.328174e-02 3.061700e-14 1 
    0.477900 2.327658e-02 3.057500e-14 1 
    0.478175 2.308845e-02 3.029300e-14 1 
    0.478450 2.196128e-02 2.878100e-14 1 
    0.478725 2.304839e-02 3.017100e-14 1 
    0.479000 2.186496e-02 2.858900e-14 1 
    0.479275 2.233723e-02 2.917300e-14 1 
    0.479550 2.195966e-02 2.864700e-14 1 
    0.479825 2.352664e-02 3.065600e-14 1 
    0.480100 2.300811e-02 2.994600e-14 1 
    0.480375 2.310986e-02 3.004400e-14 1 
    0.480650 2.247098e-02 2.918000e-14 1 
    0.480925 2.304948e-02 2.989700e-14 1 
    0.481200 2.278872e-02 2.952500e-14 1 
    0.481475 2.287504e-02 2.960300e-14 1 
    0.481750 2.289035e-02 2.958900e-14 1 
    0.482025 2.244096e-02 2.897500e-14 1 
    0.482300 2.366530e-02 3.052100e-14 1 
    0.482575 2.315900e-02 2.983400e-14 1 
    0.482850 2.295459e-02 2.953700e-14 1 
    0.483125 2.294418e-02 2.949000e-14 1 
    0.483400 2.226539e-02 2.858500e-14 1 
    0.483675 2.240224e-02 2.872800e-14 1 
    0.483950 2.176491e-02 2.787900e-14 1 
    0.484225 2.351226e-02 3.008300e-14 1 
    0.484500 2.306010e-02 2.947100e-14 1 
    0.484775 2.362132e-02 3.015400e-14 1 
    0.485050 2.345520e-02 2.990800e-14 1 
    0.485325 2.322742e-02 2.958400e-14 1 
    0.485600 2.288825e-02 2.911900e-14 1 
    0.485875 2.204857e-02 2.801900e-14 1 
    0.486150 2.160873e-02 2.742900e-14 1 
    0.486425 2.251811e-02 2.855100e-14 1 
    0.486700 2.211878e-02 2.801300e-14 1 
    0.486975 2.192086e-02 2.773100e-14 1 
    0.487250 2.321974e-02 2.934100e-14 1 
    0.487525 2.369280e-02 2.990500e-14 1 
    0.487800 2.391782e-02 3.015500e-14 1 
    0.488075 2.446491e-02 3.081000e-14 1 
    0.488350 2.370310e-02 2.981700e-14 1 
    0.488625 2.334779e-02 2.933700e-14 1 
    0.488900 2.259327e-02 2.835700e-14 1 
    0.489175 2.360617e-02 2.959500e-14 1 
    0.489450 2.311208e-02 2.894300e-14 1 
    0.489725 2.289023e-02 2.863300e-14 1 
    0.490000 2.235091e-02 2.792700e-14 1 
    0.490275 2.274137e-02 2.838300e-14 1 
    0.490550 2.228962e-02 2.778800e-14 1 
    0.490825 2.174767e-02 2.708200e-14 1 
    0.491100 2.311220e-02 2.874900e-14 1 
    0.491375 2.202501e-02 2.736600e-14 1 
    0.491650 2.264591e-02 2.810600e-14 1 
    0.491925 2.162344e-02 2.680700e-14 1 
    0.492200 2.171061e-02 2.688500e-14 1 
    0.492475 2.170416e-02 2.684700e-14 1 
    0.492750 2.282991e-02 2.820800e-14 1 
    0.493025 2.762289e-02 3.409200e-14 1 
    0.493300 3.973579e-02 4.898700e-14 1 
    0.493575 5.803346e-02 7.146500e-14 1 
    0.493850 6.607328e-02 8.127500e-14 1 
    0.494125 5.855840e-02 7.195100e-14 1 
    0.494400 4.089418e-02 5.019100e-14 1 
    0.494675 2.776812e-02 3.404300e-14 1 
    0.494950 2.247569e-02 2.752400e-14 1 
    0.495225 2.062289e-02 2.522700e-14 1 
    0.495500 2.178174e-02 2.661500e-14 1 
    0.495775 2.221312e-02 2.711200e-14 1 
    0.496050 2.230749e-02 2.719700e-14 1 
    0.496325 2.134687e-02 2.599700e-14 1 
    0.496600 2.143054e-02 2.607000e-14 1 
    0.496875 2.221140e-02 2.699000e-14 1 
    0.497150 2.310352e-02 2.804300e-14 1 
    0.497425 2.376911e-02 2.881900e-14 1 
    0.497700 2.320090e-02 2.809900e-14 1 
    0.497975 2.321580e-02 2.808600e-14 1 
    0.498250 2.312146e-02 2.794100e-14 1 
    0.498525 2.223076e-02 2.683500e-14 1 
    0.498800 2.280680e-02 2.750000e-14 1 
    0.499075 2.278878e-02 2.744800e-14 1 
    0.499350 2.230772e-02 2.683900e-14 1 
    0.499625 2.214258e-02 2.661100e-14 1 
    0.499900 2.218946e-02 2.663800e-14 1 
    0.500175 2.217635e-02 2.659300e-14 1 
    0.500450 2.221744e-02 2.661300e-14 1 
    0.500725 2.262631e-02 2.707300e-14 1 
    0.501000 2.198601e-02 2.627800e-14 1 
    0.501275 2.260903e-02 2.699300e-14 1 
    0.501550 2.289798e-02 2.730800e-14 1 
    0.501825 2.212060e-02 2.635200e-14 1 
    0.502100 2.280873e-02 2.714200e-14 1 
    0.502375 2.406365e-02 2.860400e-14 1 
    0.502650 2.465090e-02 2.927000e-14 1 
    0.502925 2.770550e-02 3.286100e-14 1 
    0.503200 3.531439e-02 4.184000e-14 1 
    0.503475 4.614817e-02 5.461600e-14 1 
    0.503750 5.328791e-02 6.299700e-14 1 
    0.504025 4.869292e-02 5.750200e-14 1 
    0.504300 3.744585e-02 4.417200e-14 1 
    0.504575 2.843158e-02 3.350200e-14 1 
    0.504850 2.447296e-02 2.880600e-14 1 
    0.505125 2.339482e-02 2.750700e-14 1 
    0.505400 2.367317e-02 2.780400e-14 1 
    0.505675 2.398193e-02 2.813600e-14 1 
    0.505950 2.381347e-02 2.790800e-14 1 
    0.506225 2.337211e-02 2.736100e-14 1 
    0.506500 2.413293e-02 2.822100e-14 1 
    0.506775 2.378932e-02 2.778900e-14 1 
    0.507050 2.318525e-02 2.705400e-14 1 
    0.507325 2.468347e-02 2.877100e-14 1 
    0.507600 2.792237e-02 3.251100e-14 1 
    0.507875 4.152098e-02 4.829200e-14 1 
    0.508150 7.174113e-02 8.335000e-14 1 
    0.508425 1.060954e-01 1.231300e-13 1 
    0.508700 1.163283e-01 1.348600e-13 1 
    0.508975 9.237920e-02 1.069800e-13 1 
    0.509250 5.855797e-02 6.774000e-14 1 
    0.509525 3.574476e-02 4.130500e-14 1 
    0.509800 2.673117e-02 3.085600e-14 1 
    0.510075 2.419728e-02 2.790100e-14 1 
    0.510350 2.295756e-02 2.644300e-14 1 
    0.510625 2.293451e-02 2.638800e-14 1 
    0.510900 2.321414e-02 2.668100e-14 1 
    0.511175 2.359015e-02 2.708400e-14 1 
    0.511450 2.321619e-02 2.662600e-14 1 
    0.511725 2.364967e-02 2.709400e-14 1 
    0.512000 2.332383e-02 2.669200e-14 1 
    0.512275 2.308296e-02 2.638800e-14 1 
    0.512550 2.363842e-02 2.699400e-14 1 
    0.512825 2.334470e-02 2.663000e-14 1 
    0.513100 2.316878e-02 2.640100e-14 1 
    0.513375 2.397286e-02 2.728800e-14 1 
    0.513650 2.424480e-02 2.756800e-14 1 
    0.513925 2.421706e-02 2.750700e-14 1 
    0.514200 2.416543e-02 2.741900e-14 1 
    0.514475 2.335047e-02 2.646600e-14 1 
    0.514750 2.293648e-02 2.596900e-14 1 
    0.515025 2.313959e-02 2.617100e-14 1 
    0.515300 2.294126e-02 2.591900e-14 1 
    0.515575 2.275930e-02 2.568600e-14 1 
    0.515850 2.303727e-02 2.597200e-14 1 
    0.516125 2.250243e-02 2.534200e-14 1 
    0.516400 2.278242e-02 2.563000e-14 1 
    0.516675 2.317241e-02 2.604100e-14 1 
    0.516950 2.340375e-02 2.627300e-14 1 
    0.517225 2.327974e-02 2.610600e-14 1 
    0.517500 2.340180e-02 2.621500e-14 1 
    0.517775 2.348298e-02 2.627800e-14 1 
    0.518050 2.295687e-02 2.566200e-14 1 
    0.518325 2.267318e-02 2.531800e-14 1 
    0.518600 2.334092e-02 2.603600e-14 1 
    0.518875 2.349581e-02 2.618100e-14 1 
    0.519150 2.284244e-02 2.542600e-14 1 
    0.519425 2.327495e-02 2.588000e-14 1 
    0.519700 2.337432e-02 2.596300e-14 1 
    0.519975 2.337023e-02 2.593100e-14 1 
    0.520250 2.362231e-02 2.618300e-14 1 
    0.520525 2.308011e-02 2.555500e-14 1 
    0.520800 2.246710e-02 2.485000e-14 1 
    0.521075 2.265375e-02 2.503000e-14 1 
    0.521350 2.343057e-02 2.586100e-14 1 
    0.521625 2.307708e-02 2.544400e-14 1 
    0.521900 2.312684e-02 2.547200e-14 1 
    0.522175 2.349751e-02 2.585300e-14 1 
    0.522450 2.323839e-02 2.554100e-14 1 
    0.522725 2.258340e-02 2.479500e-14 1 
    0.523000 2.259623e-02 2.478300e-14 1 
    0.523275 2.360118e-02 2.585800e-14 1 
    0.523550 2.288225e-02 2.504400e-14 1 
    0.523825 2.289989e-02 2.503700e-14 1 
    0.524100 2.320503e-02 2.534400e-14 1 
    0.524375 2.261988e-02 2.467900e-14 1 
    0.524650 2.262251e-02 2.465600e-14 1 
    0.524925 2.250386e-02 2.450100e-14 1 
    0.525200 2.196658e-02 2.389100e-14 1 
    0.525475 2.141986e-02 2.327200e-14 1 
    0.525750 2.208725e-02 2.397200e-14 1 
    0.526025 2.320887e-02 2.516300e-14 1 
    0.526300 2.268654e-02 2.457100e-14 1 
    0.526575 2.236735e-02 2.420000e-14 1 
    0.526850 2.267199e-02 2.450400e-14 1 
    0.527125 2.300872e-02 2.484200e-14 1 
    0.527400 2.364745e-02 2.550500e-14 1 
    0.527675 2.407214e-02 2.593600e-14 1 
    0.527950 2.381108e-02 2.562800e-14 1 
    0.528225 2.440695e-02 2.624200e-14 1 
    0.528500 2.426292e-02 2.606000e-14 1 
    0.528775 2.270749e-02 2.436400e-14 1 
    0.529050 2.282162e-02 2.446100e-14 1 
    0.529325 2.317316e-02 2.481200e-14 1 
    0.529600 2.291677e-02 2.451200e-14 1 
    0.529875 2.290033e-02 2.446900e-14 1 
    0.530150 2.307869e-02 2.463400e-14 1 
    0.530425 2.296103e-02 2.448300e-14 1 
    0.530700 2.218122e-02 2.362700e-14 1 
    0.530975 2.281038e-02 2.427200e-14 1 
    0.531250 2.284248e-02 2.428100e-14 1 
    0.531525 2.308932e-02 2.451800e-14 1 
    0.531800 2.383345e-02 2.528200e-14 1 
    0.532075 2.388830e-02 2.531400e-14 1 
    0.532350 2.380909e-02 2.520400e-14 1 
    0.532625 2.396797e-02 2.534600e-14 1 
    0.532900 2.412147e-02 2.548200e-14 1 
    0.533175 2.372469e-02 2.503700e-14 1 
    0.533450 2.412101e-02 2.542900e-14 1 
    0.533725 2.494540e-02 2.627100e-14 1 
    0.534000 2.467265e-02 2.595700e-14 1 
    0.534275 2.425371e-02 2.549000e-14 1 
    0.534550 2.418916e-02 2.539600e-14 1 
    0.534825 2.371539e-02 2.487300e-14 1 
    0.535100 2.299532e-02 2.409300e-14 1 
    0.535375 2.255654e-02 2.360900e-14 1 
    0.535650 2.398850e-02 2.508200e-14 1 
    0.535925 2.433578e-02 2.541900e-14 1 
    0.536200 2.341772e-02 2.443500e-14 1 
    0.536475 2.385044e-02 2.486100e-14 1 
    0.536750 2.347539e-02 2.444500e-14 1 
    0.537025 2.356771e-02 2.451600e-14 1 
    0.537300 2.433764e-02 2.529100e-14 1 
    0.537575 2.530562e-02 2.627000e-14 1 
    0.537850 2.515120e-02 2.608300e-14 1 
    0.538125 2.402054e-02 2.488500e-14 1 
    0.538400 2.429728e-02 2.514600e-14 1 
    0.538675 2.444302e-02 2.527100e-14 1 
    0.538950 2.425884e-02 2.505500e-14 1 
    0.539225 2.421479e-02 2.498400e-14 1 
    0.539500 2.344199e-02 2.416200e-14 1 
    0.539775 2.352611e-02 2.422400e-14 1 
    0.540050 2.389424e-02 2.457800e-14 1 
    0.540325 2.378039e-02 2.443600e-14 1 
    0.540600 2.380655e-02 2.443800e-14 1 
    0.540875 2.376447e-02 2.437000e-14 1 
    0.541150 2.357291e-02 2.414900e-14 1 
    0.541425 2.456913e-02 2.514400e-14 1 
    0.541700 2.457062e-02 2.512000e-14 1 
    0.541975 2.380248e-02 2.431000e-14 1 
    0.542250 2.333658e-02 2.381000e-14 1 
    0.542525 2.324645e-02 2.369400e-14 1 
    0.542800 2.363340e-02 2.406400e-14 1 
    0.543075 2.354921e-02 2.395400e-14 1 
    0.543350 2.404544e-02 2.443400e-14 1 
    0.543625 2.423429e-02 2.460100e-14 1 
    0.543900 2.414837e-02 2.448900e-14 1 
    0.544175 2.507895e-02 2.540700e-14 1 
    0.544450 2.518137e-02 2.548500e-14 1 
    0.544725 2.437203e-02 2.464100e-14 1 
    0.545000 2.493723e-02 2.518700e-14 1 
    0.545275 2.457390e-02 2.479500e-14 1 
    0.545550 2.447468e-02 2.467000e-14 1 
    0.545825 2.403857e-02 2.420600e-14 1 
    0.546100 2.445049e-02 2.459600e-14 1 
    0.546375 2.557867e-02 2.570500e-14 1 
    0.546650 2.548589e-02 2.558600e-14 1 
    0.546925 2.511370e-02 2.518700e-14 1 
    0.547200 2.470679e-02 2.475400e-14 1 
    0.547475 2.455379e-02 2.457600e-14 1 
    0.547750 2.509551e-02 2.509300e-14 1 
    0.548025 2.397145e-02 2.394500e-14 1 
    0.548300 2.266471e-02 2.261700e-14 1 
    0.548575 2.377684e-02 2.370300e-14 1 
    0.548850 2.466021e-02 2.455900e-14 1 
    0.549125 2.314507e-02 2.302700e-14 1 
    0.549400 2.266922e-02 2.253100e-14 1 
    0.549675 2.374640e-02 2.357800e-14 1 
    0.549950 2.461600e-02 2.441700e-14 1 
    0.550225 2.574060e-02 2.550700e-14 1 
    0.550500 2.539864e-02 2.514300e-14 1 
    0.550775 2.431679e-02 2.404800e-14 1 
    0.551050 2.422568e-02 2.393400e-14 1 
    0.551325 2.385270e-02 2.354200e-14 1 
    0.551600 2.433391e-02 2.399300e-14 1 
    0.551875 2.483228e-02 2.446000e-14 1 
    0.552150 2.430014e-02 2.391200e-14 1 
    0.552425 2.466818e-02 2.425000e-14 1 
    0.552700 2.493306e-02 2.448600e-14 1 
    0.552975 2.475912e-02 2.429100e-14 1 
    0.553250 2.410730e-02 2.362800e-14 1 
    0.553525 2.356241e-02 2.307100e-14 1 
    0.553800 2.548733e-02 2.493100e-14 1 
    0.554075 2.534175e-02 2.476400e-14 1 
    0.554350 2.375357e-02 2.318900e-14 1 
    0.554625 2.350850e-02 2.292700e-14 1 
    0.554900 2.410864e-02 2.348900e-14 1 
    0.555175 2.442946e-02 2.377800e-14 1 
    0.555450 2.352501e-02 2.287500e-14 1 
    0.555725 2.230166e-02 2.166400e-14 1 
    0.556000 2.435992e-02 2.364000e-14 1 
    0.556275 2.425509e-02 2.351500e-14 1 
    0.556550 2.436271e-02 2.359600e-14 1 
    0.556825 2.415941e-02 2.337600e-14 1 
    0.557100 2.449571e-02 2.367800e-14 1 
    0.557375 2.509878e-02 2.423700e-14 1 
    0.557650 2.535989e-02 2.446500e-14 1 
    0.557925 2.509334e-02 2.418400e-14 1 
    0.558200 2.512224e-02 2.418800e-14 1 
    0.558475 2.546617e-02 2.449500e-14 1 
    0.558750 2.409364e-02 2.315200e-14 1 
    0.559025 2.508197e-02 2.407800e-14 1 
    0.559300 2.371983e-02 2.274800e-14 1 
    0.559575 2.524720e-02 2.418900e-14 1 
    0.559850 2.469635e-02 2.363800e-14 1 
    0.560125 2.396764e-02 2.291800e-14 1 
    0.560400 2.471140e-02 2.360600e-14 1 
    0.560675 2.475976e-02 2.362900e-14 1 
    0.560950 2.543436e-02 2.424900e-14 1 
    0.561225 2.447239e-02 2.330900e-14 1 
    0.561500 2.482638e-02 2.362300e-14 1 
    0.561775 2.446989e-02 2.326100e-14 1 
    0.562050 2.492453e-02 2.367000e-14 1 
    0.562325 2.562983e-02 2.431600e-14 1 
    0.562600 2.585642e-02 2.450700e-14 1 
    0.562875 2.621015e-02 2.481800e-14 1 
    0.563150 2.515644e-02 2.379700e-14 1 
    0.563425 2.509636e-02 2.371700e-14 1 
    0.563700 2.517700e-02 2.377000e-14 1 
    0.563975 2.585679e-02 2.438800e-14 1 
    0.564250 2.525693e-02 2.379900e-14 1 
    0.564525 2.619513e-02 2.465900e-14 1 
    0.564800 2.467989e-02 2.321000e-14 1 
    0.565075 2.546815e-02 2.392800e-14 1 
    0.565350 2.493254e-02 2.340200e-14 1 
    0.565625 2.545589e-02 2.387000e-14 1 
    0.565900 2.471314e-02 2.315100e-14 1 
    0.566175 2.508977e-02 2.348100e-14 1 
    0.566450 2.538261e-02 2.373200e-14 1 
    0.566725 2.545865e-02 2.378000e-14 1 
    0.567000 2.488325e-02 2.322000e-14 1 
    0.567275 2.330268e-02 2.172400e-14 1 
    0.567550 2.474901e-02 2.305000e-14 1 
    0.567825 2.430119e-02 2.261100e-14 1 
    0.568100 2.492933e-02 2.317300e-14 1 
    0.568375 2.505900e-02 2.327100e-14 1 
    0.568650 2.599406e-02 2.411600e-14 1 
    0.568925 2.514852e-02 2.330900e-14 1 
    0.569200 2.594501e-02 2.402400e-14 1 
    0.569475 2.422642e-02 2.241100e-14 1 
    0.569750 2.513278e-02 2.322700e-14 1 
    0.570025 2.514189e-02 2.321300e-14 1 
    0.570300 2.429558e-02 2.241000e-14 1 
    0.570575 2.539444e-02 2.340100e-14 1 
    0.570850 2.559924e-02 2.356700e-14 1 
    0.571125 2.643611e-02 2.431400e-14 1 
    0.571400 2.407487e-02 2.212100e-14 1 
    0.571675 2.476257e-02 2.273100e-14 1 
    0.571950 2.474060e-02 2.268900e-14 1 
    0.572225 2.548913e-02 2.335300e-14 1 
    0.572500 2.616587e-02 2.395000e-14 1 
    0.572775 2.386281e-02 2.182100e-14 1 
    0.573050 2.643291e-02 2.414800e-14 1 
    0.573325 2.555216e-02 2.332100e-14 1 
    0.573600 2.490000e-02 2.270400e-14 1 
    0.573875 2.446721e-02 2.228800e-14 1 
    0.574150 2.593013e-02 2.359800e-14 1 
    0.574425 2.522575e-02 2.293500e-14 1 
    0.574700 2.494385e-02 2.265700e-14 1 
    0.574975 2.523331e-02 2.289800e-14 1 
    0.575250 2.632079e-02 2.386200e-14 1 
    0.575525 2.551678e-02 2.311100e-14 1 
    0.575800 2.556659e-02 2.313400e-14 1 
    0.576075 2.594500e-02 2.345400e-14 1 
    0.576350 2.624549e-02 2.370300e-14 1 
    0.576625 2.683578e-02 2.421300e-14 1 
    0.576900 2.506419e-02 2.259300e-14 1 
    0.577175 2.410425e-02 2.170700e-14 1 
    0.577450 2.509311e-02 2.257600e-14 1 
    0.577725 2.516597e-02 2.262000e-14 1 
    0.578000 2.510418e-02 2.254300e-14 1 
    0.578275 2.644897e-02 2.372800e-14 1 
    0.578550 2.725626e-02 2.442900e-14 1 
    0.578825 2.604365e-02 2.332000e-14 1 
    0.579100 2.627073e-02 2.350100e-14 1 
    0.579375 2.530657e-02 2.261700e-14 1 
    0.579650 2.354983e-02 2.102700e-14 1 
    0.579925 2.407777e-02 2.147800e-14 1 
    0.580200 2.402879e-02 2.141400e-14 1 
    0.580475 2.537917e-02 2.259600e-14 1 
    0.580750 2.493666e-02 2.218100e-14 1 
    0.581025 2.608446e-02 2.318000e-14 1 
    0.581300 2.634682e-02 2.339100e-14 1 
    0.581575 2.598730e-02 2.305000e-14 1 
    0.581850 2.547246e-02 2.257200e-14 1 
    0.582125 2.717846e-02 2.406100e-14 1 
    0.582400 2.662300e-02 2.354700e-14 1 
    0.582675 2.591481e-02 2.289900e-14 1 
    0.582950 2.530946e-02 2.234300e-14 1 
    0.583225 2.523470e-02 2.225600e-14 1 
    0.583500 2.693022e-02 2.372900e-14 1 
    0.583775 2.694425e-02 2.371900e-14 1 
    0.584050 2.576437e-02 2.265900e-14 1 
    0.584325 2.522072e-02 2.216000e-14 1 
    0.584600 2.687920e-02 2.359500e-14 1 
    0.584875 2.696151e-02 2.364500e-14 1 
    0.585150 2.650408e-02 2.322200e-14 1 
    0.585425 2.504044e-02 2.191900e-14 1 
    0.585700 2.631609e-02 2.301400e-14 1 
    0.585975 2.566208e-02 2.242100e-14 1 
    0.586250 2.675505e-02 2.335400e-14 1 
    0.586525 2.645564e-02 2.307100e-14 1 
    0.586800 2.491258e-02 2.170500e-14 1 
    0.587075 2.576311e-02 2.242500e-14 1 
    0.587350 2.601609e-02 2.262400e-14 1 
    0.587625 2.606233e-02 2.264300e-14 1 
    0.587900 2.581253e-02 2.240500e-14 1 
    0.588175 2.610307e-02 2.263600e-14 1 
    0.588450 2.597859e-02 2.250700e-14 1 
    0.588725 2.653317e-02 2.296600e-14 1 
    0.589000 2.650014e-02 2.291600e-14 1 
    0.589275 2.555029e-02 2.207400e-14 1 
    0.589550 2.550926e-02 2.201800e-14 1 
    0.589825 2.656283e-02 2.290600e-14 1 
    0.590100 2.577162e-02 2.220300e-14 1 
    0.590375 2.690865e-02 2.316100e-14 1 
    0.590650 2.671859e-02 2.297600e-14 1 
    0.590925 2.637683e-02 2.266100e-14 1 
    0.591200 2.654235e-02 2.278200e-14 1 
    0.591475 2.622071e-02 2.248500e-14 1 
    0.591750 2.630696e-02 2.253800e-14 1 
    0.592025 2.632791e-02 2.253500e-14 1 
    0.592300 2.667396e-02 2.281000e-14 1 
    0.592575 2.649741e-02 2.263800e-14 1 
    0.592850 2.499545e-02 2.133500e-14 1 
    0.593125 2.604355e-02 2.220900e-14 1 
    0.593400 2.607475e-02 2.221500e-14 1 
    0.593675 2.516611e-02 2.142100e-14 1 
    0.593950 2.480020e-02 2.109000e-14 1 
    0.594225 2.537871e-02 2.156200e-14 1 
    0.594500 2.520782e-02 2.139700e-14 1 
    0.594775 2.388805e-02 2.025800e-14 1 
    0.595050 2.535717e-02 2.148400e-14 1 
    0.595325 2.590869e-02 2.193100e-14 1 
    0.595600 2.775481e-02 2.347200e-14 1 
    0.595875 2.752716e-02 2.325800e-14 1 
    0.596150 2.746610e-02 2.318500e-14 1 
    0.596425 3.155024e-02 2.660800e-14 1 
    0.596700 3.457373e-02 2.913100e-14 1 
    0.596975 3.370515e-02 2.837300e-14 1 
    0.597250 3.116673e-02 2.621200e-14 1 
    0.597525 2.884495e-02 2.423700e-14 1 
    0.597800 2.752067e-02 2.310300e-14 1 
    0.598075 2.464510e-02 2.067000e-14 1 
    0.598350 2.368082e-02 1.984300e-14 1 
    0.598625 2.485529e-02 2.080800e-14 1 
    0.598900 2.481357e-02 2.075400e-14 1 
    0.599175 2.502663e-02 2.091300e-14 1 
    0.599450 2.446030e-02 2.042100e-14 1 
    0.599725 2.446476e-02 2.040600e-14 1 
    0.600000 2.556360e-02 2.130300e-14 1 
    0.600275 2.639658e-02 2.197700e-14 1 
    0.600550 2.596874e-02 2.160100e-14 1 
    0.600825 2.541615e-02 2.112200e-14 1 
    0.601100 2.471076e-02 2.051700e-14 1 
    0.601375 2.481173e-02 2.058200e-14 1 
    0.601650 2.685188e-02 2.225400e-14 1 
    0.601925 2.642354e-02 2.187900e-14 1 
    0.602200 2.522799e-02 2.087000e-14 1 
    0.602475 2.623954e-02 2.168700e-14 1 
    0.602750 2.541821e-02 2.098900e-14 1 
    0.603025 2.450807e-02 2.021900e-14 1 
    0.603300 2.590017e-02 2.134800e-14 1 
    0.603575 2.642288e-02 2.175900e-14 1 
    0.603850 2.587206e-02 2.128600e-14 1 
    0.604125 2.593334e-02 2.131700e-14 1 
    0.604400 2.582179e-02 2.120600e-14 1 
    0.604675 2.723592e-02 2.234700e-14 1 
    0.604950 2.596274e-02 2.128300e-14 1 
    0.605225 2.602909e-02 2.131800e-14 1 
    0.605500 2.624339e-02 2.147400e-14 1 
    0.605775 2.616938e-02 2.139400e-14 1 
    0.606050 2.560057e-02 2.091000e-14 1 
    0.606325 2.747299e-02 2.241900e-14 1 
    0.606600 2.667858e-02 2.175100e-14 1 
    0.606875 2.632589e-02 2.144400e-14 1 
    0.607150 2.627848e-02 2.138600e-14 1 
    0.607425 2.533437e-02 2.059900e-14 1 
    0.607700 2.598144e-02 2.110600e-14 1 
    0.607975 2.567475e-02 2.083800e-14 1 
    0.608250 2.613824e-02 2.119500e-14 1 
    0.608525 2.659761e-02 2.154800e-14 1 
    0.608800 2.565799e-02 2.076800e-14 1 
    0.609075 2.525209e-02 2.042100e-14 1 
    0.609350 2.497042e-02 2.017500e-14 1 
    0.609625 2.539806e-02 2.050200e-14 1 
    0.609900 2.492501e-02 2.010200e-14 1 
    0.610175 2.498224e-02 2.013000e-14 1 
    0.610450 2.632891e-02 2.119600e-14 1 
    0.610725 2.624696e-02 2.111100e-14 1 
    0.611000 2.666756e-02 2.143000e-14 1 
    0.611275 2.638642e-02 2.118500e-14 1 
    0.611550 2.681782e-02 2.151200e-14 1 
    0.611825 2.699168e-02 2.163200e-14 1 
    0.612100 2.714583e-02 2.173600e-14 1 
    0.612375 2.585647e-02 2.068500e-14 1 
    0.612650 2.707953e-02 2.164400e-14 1 
    0.612925 2.616716e-02 2.089600e-14 1 
    0.613200 2.552134e-02 2.036200e-14 1 
    0.613475 2.598582e-02 2.071400e-14 1 
    0.613750 2.570149e-02 2.046900e-14 1 
    0.614025 2.843033e-02 2.262200e-14 1 
    0.614300 2.603815e-02 2.070000e-14 1 
    0.614575 2.554527e-02 2.029000e-14 1 
    0.614850 2.475157e-02 1.964200e-14 1 
    0.615125 2.626706e-02 2.082600e-14 1 
    0.615400 2.722977e-02 2.157000e-14 1 
    0.615675 2.629888e-02 2.081400e-14 1 
    0.615950 2.658796e-02 2.102400e-14 1 
    0.616225 2.586616e-02 2.043500e-14 1 
    0.616500 2.625032e-02 2.072000e-14 1 
    0.616775 2.749994e-02 2.168700e-14 1 
    0.617050 2.762600e-02 2.176700e-14 1 
    0.617325 2.632825e-02 2.072600e-14 1 
    0.617600 2.699506e-02 2.123200e-14 1 
    0.617875 2.650626e-02 2.082900e-14 1 
    0.618150 2.649037e-02 2.079800e-14 1 
    0.618425 2.699456e-02 2.117500e-14 1 
    0.618700 2.636911e-02 2.066600e-14 1 
    0.618975 2.611798e-02 2.045100e-14 1 
    0.619250 2.547395e-02 1.992900e-14 1 
    0.619525 2.617081e-02 2.045600e-14 1 
    0.619800 2.566136e-02 2.004000e-14 1 
    0.620075 2.555469e-02 1.993900e-14 1 
    0.620350 2.506938e-02 1.954300e-14 1 
    0.620625 2.660920e-02 2.072500e-14 1 
    0.620900 2.667134e-02 2.075500e-14 1 
    0.621175 2.681073e-02 2.084500e-14 1 
    0.621450 2.480435e-02 1.926800e-14 1 
    0.621725 2.482630e-02 1.926800e-14 1 
    0.622000 2.593541e-02 2.011100e-14 1 
    0.622275 2.536719e-02 1.965300e-14 1 
    0.622550 2.625906e-02 2.032600e-14 1 
    0.622825 2.660940e-02 2.057900e-14 1 
    0.623100 2.552250e-02 1.972100e-14 1 
    0.623375 2.793749e-02 2.156800e-14 1 
    0.623650 2.745263e-02 2.117500e-14 1 
    0.623925 2.682805e-02 2.067500e-14 1 
    0.624200 2.612700e-02 2.011700e-14 1 
    0.624475 2.520500e-02 1.939000e-14 1 
    0.624750 2.567736e-02 1.973600e-14 1 
    0.625025 2.666620e-02 2.047800e-14 1 
    0.625300 2.740129e-02 2.102400e-14 1 
    0.625575 2.614048e-02 2.003900e-14 1 
    0.625850 2.697426e-02 2.066000e-14 1 
    0.626125 2.598522e-02 1.988500e-14 1 
    0.626400 2.568892e-02 1.964100e-14 1 
    0.626675 2.625344e-02 2.005500e-14 1 
    0.626950 2.648481e-02 2.021400e-14 1 
    0.627225 2.733552e-02 2.084500e-14 1 
    0.627500 2.639611e-02 2.011100e-14 1 
    0.627775 2.580971e-02 1.964700e-14 1 
    0.628050 2.699331e-02 2.053000e-14 1 
    0.628325 2.570756e-02 1.953500e-14 1 
    0.628600 2.703666e-02 2.052700e-14 1 
    0.628875 2.613093e-02 1.982200e-14 1 
    0.629150 2.869370e-02 2.174700e-14 1 
    0.629425 2.756195e-02 2.087100e-14 1 
    0.629700 2.568406e-02 1.943200e-14 1 
    0.629975 2.683096e-02 2.028200e-14 1 
    0.630250 2.584546e-02 1.952000e-14 1 
    0.630525 2.700902e-02 2.038100e-14 1 
    0.630800 2.754058e-02 2.076400e-14 1 
    0.631075 2.779824e-02 2.094000e-14 1 
    0.631350 2.849346e-02 2.144500e-14 1 
    0.631625 2.532003e-02 1.904000e-14 1 
    0.631900 2.558699e-02 1.922400e-14 1 
    0.632175 2.535882e-02 1.903600e-14 1 
    0.632450 2.597421e-02 1.948100e-14 1 
    0.632725 2.721784e-02 2.039600e-14 1 
    0.633000 2.545978e-02 1.906200e-14 1 
    0.633275 2.471191e-02 1.848600e-14 1 
    0.633550 2.624393e-02 1.961500e-14 1 
    0.633825 2.696439e-02 2.013600e-14 1 
    0.634100 2.648921e-02 1.976400e-14 1 
    0.634375 2.636598e-02 1.965500e-14 1 
    0.634650 2.569472e-02 1.913800e-14 1 
    0.634925 2.563636e-02 1.907800e-14 1 
    0.635200 2.568279e-02 1.909600e-14 1 
    0.635475 2.702959e-02 2.008000e-14 1 
    0.635750 2.677141e-02 1.987100e-14 1 
    0.636025 2.628487e-02 1.949300e-14 1 
    0.636300 2.761671e-02 2.046300e-14 1 
    0.636575 2.734207e-02 2.024200e-14 1 
    0.636850 2.731432e-02 2.020400e-14 1 
    0.637125 2.565602e-02 1.896100e-14 1 
    0.637400 2.531658e-02 1.869400e-14 1 
    0.637675 2.857385e-02 2.108100e-14 1 
    0.637950 2.631534e-02 1.939800e-14 1 
    0.638225 2.582208e-02 1.901800e-14 1 
    0.638500 2.624387e-02 1.931200e-14 1 
    0.638775 2.537968e-02 1.866000e-14 1 
    0.639050 2.628910e-02 1.931200e-14 1 
    0.639325 3.016748e-02 2.214200e-14 1 
    0.639600 3.607339e-02 2.645400e-14 1 
    0.639875 3.964471e-02 2.904800e-14 1 
    0.640150 3.889746e-02 2.847600e-14 1 
    0.640425 3.351972e-02 2.451800e-14 1 
    0.640700 3.063535e-02 2.238900e-14 1 
    0.640975 2.804455e-02 2.047800e-14 1 
    0.641250 2.837291e-02 2.070000e-14 1 
    0.641525 2.786223e-02 2.031000e-14 1 
    0.641800 2.788612e-02 2.031000e-14 1 
    0.642075 2.753212e-02 2.003500e-14 1 
    0.642350 2.710183e-02 1.970500e-14 1 
    0.642625 2.641612e-02 1.919000e-14 1 
    0.642900 2.715791e-02 1.971200e-14 1 
    0.643175 2.585049e-02 1.874700e-14 1 
    0.643450 2.906752e-02 2.106200e-14 1 
    0.643725 2.722075e-02 1.970700e-14 1 
    0.644000 2.656661e-02 1.921700e-14 1 
    0.644275 2.757583e-02 1.993000e-14 1 
    0.644550 2.903682e-02 2.096800e-14 1 
    0.644825 2.833256e-02 2.044200e-14 1 
    0.645100 2.669350e-02 1.924300e-14 1 
    0.645375 2.854058e-02 2.055700e-14 1 
    0.645650 2.728513e-02 1.963600e-14 1 
    0.645925 2.783825e-02 2.001700e-14 1 
    0.646200 3.163822e-02 2.273000e-14 1 
    0.646475 3.385650e-02 2.430300e-14 1 
    0.646750 3.221217e-02 2.310300e-14 1 
    0.647025 3.009333e-02 2.156500e-14 1 
    0.647300 2.709236e-02 1.939800e-14 1 
    0.647575 2.466637e-02 1.764600e-14 1 
    0.647850 2.427880e-02 1.735400e-14 1 
    0.648125 2.670640e-02 1.907300e-14 1 
    0.648400 2.778152e-02 1.982400e-14 1 
    0.648675 2.814172e-02 2.006400e-14 1 
    0.648950 2.894749e-02 2.062100e-14 1 
    0.649225 2.685473e-02 1.911400e-14 1 
    0.649500 2.678187e-02 1.904600e-14 1 
    0.649775 2.797969e-02 1.988100e-14 1 
    0.650050 2.765265e-02 1.963200e-14 1 
    0.650325 2.727851e-02 1.935000e-14 1 
    0.650600 2.779964e-02 1.970300e-14 1 
    0.650875 2.780903e-02 1.969300e-14 1 
    0.651150 2.681494e-02 1.897300e-14 1 
    0.651425 2.721386e-02 1.923900e-14 1 
    0.651700 2.635627e-02 1.861700e-14 1 
    0.651975 2.671290e-02 1.885300e-14 1 
    0.652250 2.651989e-02 1.870100e-14 1 
    0.652525 2.782530e-02 1.960500e-14 1 
    0.652800 2.722232e-02 1.916400e-14 1 
    0.653075 2.660550e-02 1.871400e-14 1 
    0.653350 2.668341e-02 1.875300e-14 1 
    0.653625 2.865972e-02 2.012500e-14 1 
    0.653900 2.851708e-02 2.000800e-14 1 
    0.654175 2.737849e-02 1.919300e-14 1 
    0.654450 2.802541e-02 1.963000e-14 1 
    0.654725 2.849907e-02 1.994500e-14 1 
    0.655000 2.648514e-02 1.852000e-14 1 
    0.655275 2.697112e-02 1.884400e-14 1 
    0.655550 2.532492e-02 1.767900e-14 1 
    0.655825 2.593542e-02 1.809000e-14 1 
    0.656100 2.723853e-02 1.898300e-14 1 
    0.656375 2.762614e-02 1.923700e-14 1 
    0.656650 2.666618e-02 1.855300e-14 1 
    0.656925 2.723659e-02 1.893400e-14 1 
    0.657200 2.780648e-02 1.931400e-14 1 
    0.657475 2.699115e-02 1.873200e-14 1 
    0.657750 2.746223e-02 1.904300e-14 1 
    0.658025 2.669426e-02 1.849500e-14 1 
    0.658300 2.659957e-02 1.841400e-14 1 
    0.658575 2.644542e-02 1.829200e-14 1 
    0.658850 2.795352e-02 1.931900e-14 1 
    0.659125 2.917738e-02 2.014800e-14 1 
    0.659400 2.666680e-02 1.839900e-14 1 
    0.659675 2.711551e-02 1.869300e-14 1 
    0.659950 2.621334e-02 1.805600e-14 1 
    0.660225 2.610878e-02 1.796900e-14 1 
    0.660500 2.551977e-02 1.754900e-14 1 
    0.660775 2.715944e-02 1.866100e-14 1 
    0.661050 2.847117e-02 1.954600e-14 1 
    0.661325 2.832138e-02 1.942700e-14 1 
    0.661600 2.803270e-02 1.921300e-14 1 
    0.661875 2.696373e-02 1.846500e-14 1 
    0.662150 2.706214e-02 1.851700e-14 1 
    0.662425 2.846687e-02 1.946200e-14 1 
    0.662700 2.849929e-02 1.946800e-14 1 
    0.662975 2.914855e-02 1.989500e-14 1 
    0.663250 3.041179e-02 2.074000e-14 1 
    0.663525 2.683124e-02 1.828300e-14 1 
    0.663800 2.984243e-02 2.031800e-14 1 
    0.664075 2.889109e-02 1.965400e-14 1 
    0.664350 3.224436e-02 2.191700e-14 1 
    0.664625 3.641445e-02 2.473100e-14 1 
    0.664900 4.460414e-02 3.026800e-14 1 
    0.665175 4.723384e-02 3.202600e-14 1 
    0.665450 4.809803e-02 3.258500e-14 1 
    0.665725 6.577232e-02 4.452200e-14 1 
    0.666000 1.320969e-01 8.934400e-14 1 
    0.666275 2.600349e-01 1.757300e-13 1 
    0.666550 3.492999e-01 2.358600e-13 1 
    0.666825 3.197222e-01 2.157100e-13 1 
    0.667100 2.104511e-01 1.418700e-13 1 
    0.667375 1.105620e-01 7.447100e-14 1 
    0.667650 5.628122e-02 3.787800e-14 1 
    0.667925 4.415733e-02 2.969400e-14 1 
    0.668200 5.389447e-02 3.621200e-14 1 
    0.668475 7.225856e-02 4.851100e-14 1 
    0.668750 7.863585e-02 5.274900e-14 1 
    0.669025 6.911156e-02 4.632200e-14 1 
    0.669300 4.765724e-02 3.191600e-14 1 
    0.669575 3.549434e-02 2.375100e-14 1 
    0.669850 3.034851e-02 2.029100e-14 1 
    0.670125 2.814156e-02 1.880000e-14 1 
    0.670400 2.981260e-02 1.990000e-14 1 
    0.670675 3.059274e-02 2.040400e-14 1 
    0.670950 3.026219e-02 2.016700e-14 1 
    0.671225 2.724434e-02 1.814100e-14 1 
    0.671500 2.897863e-02 1.928000e-14 1 
    0.671775 2.884893e-02 1.917800e-14 1 
    0.672050 2.939798e-02 1.952700e-14 1 
    0.672325 2.771340e-02 1.839300e-14 1 
    0.672600 2.782505e-02 1.845200e-14 1 
    0.672875 2.678533e-02 1.774800e-14 1 
    0.673150 2.720749e-02 1.801300e-14 1 
    0.673425 2.922967e-02 1.933600e-14 1 
    0.673700 2.911284e-02 1.924300e-14 1 
    0.673975 3.035550e-02 2.004800e-14 1 
    0.674250 2.913312e-02 1.922500e-14 1 
    0.674525 2.829849e-02 1.865900e-14 1 
    0.674800 2.752469e-02 1.813400e-14 1 
    0.675075 2.823224e-02 1.858500e-14 1 
    0.675350 2.885122e-02 1.897700e-14 1 
    0.675625 2.727403e-02 1.792500e-14 1 
    0.675900 2.842768e-02 1.866800e-14 1 
    0.676175 2.846454e-02 1.867700e-14 1 
    0.676450 2.790503e-02 1.829500e-14 1 
    0.676725 2.867420e-02 1.878400e-14 1 
    0.677000 2.807723e-02 1.837800e-14 1 
    0.677275 3.025748e-02 1.978900e-14 1 
    0.677550 2.888494e-02 1.887600e-14 1 
    0.677825 2.951639e-02 1.927300e-14 1 
    0.678100 3.213679e-02 2.096700e-14 1 
    0.678375 3.139894e-02 2.046900e-14 1 
    0.678650 3.008723e-02 1.959800e-14 1 
    0.678925 3.150980e-02 2.050800e-14 1 
    0.679200 2.889970e-02 1.879400e-14 1 
    0.679475 2.829060e-02 1.838300e-14 1 
    0.679750 2.844134e-02 1.846600e-14 1 
    0.680025 2.834258e-02 1.838700e-14 1 
    0.680300 2.736584e-02 1.773900e-14 1 
    0.680575 2.879605e-02 1.865100e-14 1 
    0.680850 2.791075e-02 1.806300e-14 1 
    0.681125 2.937767e-02 1.899700e-14 1 
    0.681400 3.347337e-02 2.162800e-14 1 
    0.681675 5.279393e-02 3.408400e-14 1 
    0.681950 7.568163e-02 4.882100e-14 1 
    0.682225 8.726209e-02 5.624600e-14 1 
    0.682500 7.870883e-02 5.069200e-14 1 
    0.682775 6.382804e-02 4.107500e-14 1 
    0.683912 2.888735e-02 1.852800e-14 0 
    0.685488 2.874810e-02 1.835400e-14 0 
    0.687068 2.907433e-02 1.847700e-14 0 
    0.688652 2.906785e-02 1.838800e-14 0 
    0.690240 2.912901e-02 1.834200e-14 0 
    0.691831 2.925707e-02 1.833800e-14 0 
    0.693426 2.931839e-02 1.829200e-14 0 
    0.695024 2.965012e-02 1.841400e-14 0 
    0.696626 2.950873e-02 1.824200e-14 0 
    0.698233 2.896249e-02 1.782200e-14 0 
    0.699842 2.895572e-02 1.773600e-14 0 
    0.701455 2.915004e-02 1.777300e-14 0 
    0.703072 2.934555e-02 1.781000e-14 0 
    0.704693 2.981705e-02 1.801300e-14 0 
    0.706318 2.987823e-02 1.796700e-14 0 
    0.707946 3.007793e-02 1.800400e-14 0 
    0.709578 2.871802e-02 1.711100e-14 0 
    0.711214 3.006458e-02 1.783100e-14 0 
    0.712853 2.998818e-02 1.770400e-14 0 
    0.714496 2.970626e-02 1.745700e-14 0 
    0.716143 3.088619e-02 1.806700e-14 0 
    0.717794 2.955693e-02 1.721000e-14 0 
    0.719449 3.016958e-02 1.748600e-14 0 
    0.721108 2.920475e-02 1.684900e-14 0 
    0.722770 2.940047e-02 1.688400e-14 0 
    0.724436 2.932624e-02 1.676400e-14 0 
    0.726106 2.931926e-02 1.668300e-14 0 
    0.727780 2.965234e-02 1.679500e-14 0 
    0.729457 2.903711e-02 1.637100e-14 0 
    0.731139 2.810917e-02 1.577500e-14 0 
    0.732825 2.816736e-02 1.573500e-14 0 
    0.734514 2.962454e-02 1.647300e-14 0 
    0.736207 2.948123e-02 1.631800e-14 0 
    0.737904 3.058106e-02 1.684900e-14 0 
    0.739605 2.973941e-02 1.631000e-14 0 
    0.741310 2.872265e-02 1.568000e-14 0 
    0.743019 3.013974e-02 1.637800e-14 0 
    0.744732 3.069299e-02 1.660200e-14 0 
    0.746449 3.191005e-02 1.718100e-14 0 
    0.748170 3.067849e-02 1.644200e-14 0 
    0.749894 3.167479e-02 1.689800e-14 0 
    0.751623 3.123349e-02 1.658600e-14 0 
    0.753356 3.129634e-02 1.654300e-14 0 
    0.755092 3.187216e-02 1.677000e-14 0 
    0.756833 3.142551e-02 1.645900e-14 0 
    0.758578 3.134616e-02 1.634200e-14 0 
    0.760326 3.214211e-02 1.668000e-14 0 
    0.762079 3.111542e-02 1.607300e-14 0 
    0.763836 3.175888e-02 1.633000e-14 0 
    0.765597 3.249163e-02 1.663000e-14 0 
    0.767361 3.225878e-02 1.643500e-14 0 
    0.769130 3.239979e-02 1.643100e-14 0 
    0.770904 3.254150e-02 1.642700e-14 0 
    0.772681 3.186580e-02 1.601200e-14 0 
    0.774462 3.207884e-02 1.604500e-14 0 
    0.776247 3.199792e-02 1.593100e-14 0 
    0.778037 3.206293e-02 1.589000e-14 0 
    0.779830 3.026079e-02 1.492800e-14 0 
    0.781628 3.160608e-02 1.552000e-14 0 
    0.783430 3.138168e-02 1.533900e-14 0 
    0.785236 3.188416e-02 1.551300e-14 0 
    0.787046 3.187439e-02 1.543700e-14 0 
    0.788860 3.172071e-02 1.529200e-14 0 
    0.790679 3.070643e-02 1.473500e-14 0 
    0.792501 3.199745e-02 1.528400e-14 0 
    0.794328 3.213674e-02 1.528000e-14 0 
    0.796159 3.227662e-02 1.527600e-14 0 
    0.797995 3.286929e-02 1.548500e-14 0 
    0.799834 3.308706e-02 1.551600e-14 0 
    0.801678 3.262496e-02 1.522900e-14 0 
    0.803526 3.231714e-02 1.501600e-14 0 
    0.805378 3.179386e-02 1.470500e-14 0 
    0.807235 3.120431e-02 1.436600e-14 0 
    0.809096 3.170404e-02 1.452900e-14 0 
    0.810961 3.265709e-02 1.489700e-14 0 
    0.812831 3.220224e-02 1.462200e-14 0 
    0.814704 3.264065e-02 1.475300e-14 0 
    0.816582 3.278241e-02 1.474900e-14 0 
    0.818465 3.262340e-02 1.461000e-14 0 
    0.820352 3.254070e-02 1.450600e-14 0 
    0.822243 3.253089e-02 1.443500e-14 0 
    0.824138 3.267195e-02 1.443100e-14 0 
    0.826038 3.327084e-02 1.462800e-14 0 
    0.827942 3.213339e-02 1.406300e-14 0 
    0.829851 3.139338e-02 1.367600e-14 0 
    0.831764 3.145757e-02 1.364100e-14 0 
    0.833681 3.144752e-02 1.357400e-14 0 
    0.835603 3.322655e-02 1.427600e-14 0 
    0.837529 3.321623e-02 1.420600e-14 0 
    0.839460 3.260145e-02 1.387900e-14 0 
    0.841395 3.185047e-02 1.349700e-14 0 
    0.843335 3.281067e-02 1.384000e-14 0 
    0.845279 3.302880e-02 1.386800e-14 0 
    0.847227 3.264046e-02 1.364200e-14 0 
    0.849180 3.409152e-02 1.418300e-14 0 
    0.851138 3.369110e-02 1.395200e-14 0 
    0.853100 3.253902e-02 1.341300e-14 0 
    0.855067 3.406379e-02 1.397700e-14 0 
    0.857038 3.413042e-02 1.394000e-14 0 
    0.859014 3.273593e-02 1.330900e-14 0 
    0.860994 3.176269e-02 1.285400e-14 0 
    0.862979 3.449851e-02 1.389700e-14 0 
    0.864968 3.370254e-02 1.351400e-14 0 
    0.866962 3.416127e-02 1.363500e-14 0 
    0.868960 2.821022e-02 1.120800e-14 0 
    0.870964 3.485667e-02 1.378500e-14 0 
    0.872971 3.405474e-02 1.340600e-14 0 
    0.874984 3.319373e-02 1.300700e-14 0 
    0.877001 3.498776e-02 1.364700e-14 0 
    0.879023 3.457750e-02 1.342500e-14 0 
    0.881049 2.544901e-02 9.835400e-15 0 
    0.883080 3.353790e-02 1.290200e-14 0 
    0.885116 3.454667e-02 1.322900e-14 0 
    0.887156 3.566891e-02 1.359600e-14 0 
    0.889201 3.350895e-02 1.271400e-14 0 
    0.891251 3.412170e-02 1.288700e-14 0 
    0.893305 3.572086e-02 1.342900e-14 0 
    0.895365 3.317346e-02 1.241400e-14 0 
    0.897429 3.448632e-02 1.284600e-14 0 
    0.899498 3.471565e-02 1.287200e-14 0 
    0.901571 3.114495e-02 1.149500e-14 0 
    0.903650 3.477556e-02 1.277600e-14 0 
    0.905733 3.549391e-02 1.298000e-14 0 
    0.907820 3.475387e-02 1.265100e-14 0 
    0.909913 3.482322e-02 1.261800e-14 0 
    0.912011 3.489528e-02 1.258600e-14 0 
    0.914113 2.989786e-02 1.073400e-14 0 
    0.916220 3.058429e-02 1.093000e-14 0 
    0.918333 3.583895e-02 1.274900e-14 0 
    0.920450 3.708883e-02 1.313300e-14 0 
    0.922571 3.468101e-02 1.222400e-14 0 
    0.924698 3.539690e-02 1.241900e-14 0 
    0.926830 3.688319e-02 1.288100e-14 0 
    0.928966 3.301466e-02 1.147700e-14 0 
    0.931108 3.285209e-02 1.136800e-14 0 
    0.933254 3.438852e-02 1.184500e-14 0 
    0.935406 3.567019e-02 1.223000e-14 0 
    0.937562 3.452801e-02 1.178400e-14 0 
    0.939723 3.451663e-02 1.172600e-14 0 
    0.941890 3.539164e-02 1.196800e-14 0 
    0.944061 3.537970e-02 1.190900e-14 0 
    0.946237 3.652789e-02 1.223900e-14 0 
    0.948418 3.660052e-02 1.220700e-14 0 
    0.950605 3.667312e-02 1.217500e-14 0 
    0.952796 3.640964e-02 1.203200e-14 0 
    0.954993 3.606398e-02 1.186300e-14 0 
    0.957194 3.697865e-02 1.210800e-14 0 
    0.959401 3.662778e-02 1.193800e-14 0 
    0.961612 3.720983e-02 1.207200e-14 0 
    0.963829 3.728252e-02 1.204000e-14 0 
    0.966051 3.659291e-02 1.176300e-14 0 
    0.968278 3.616178e-02 1.157100e-14 0 
    0.970510 3.404931e-02 1.084500e-14 0 
    0.972747 3.630395e-02 1.151000e-14 0 
    0.974990 3.756793e-02 1.185600e-14 0 
    0.977237 3.738476e-02 1.174400e-14 0 
    0.979490 3.728551e-02 1.165900e-14 0 
    0.981748 3.727449e-02 1.160200e-14 0 
    0.984011 3.777897e-02 1.170500e-14 0 
    0.986279 3.750585e-02 1.156700e-14 0 
    0.988553 3.740864e-02 1.148400e-14 0 
    0.990832 3.730970e-02 1.140100e-14 0 
    0.993116 3.755752e-02 1.142400e-14 0 
    0.995405 3.728497e-02 1.128900e-14 0 
    0.997700 3.761636e-02 1.133700e-14 0 
    1.000000 3.786667e-02 1.136000e-14 0 
    1.002305 3.776684e-02 1.127800e-14 0 
    1.004615 3.784020e-02 1.124800e-14 0 
    1.006931 3.782898e-02 1.119300e-14 0 
    1.009253 3.816323e-02 1.124000e-14 0 
    1.011580 3.824050e-02 1.121100e-14 0 
    1.013912 3.840331e-02 1.120700e-14 0 
    1.018591 3.758962e-02 1.086900e-14 0 
    1.023294 3.713474e-02 1.063900e-14 0 
    1.028017 3.867957e-02 1.098000e-14 0 
    1.032761 3.865341e-02 1.087200e-14 0 
    1.037528 3.898236e-02 1.086400e-14 0 
    1.044720 3.948466e-02 1.085300e-14 0 
    1.047129 3.937822e-02 1.077400e-14 0 
    1.066596 3.926709e-02 1.035500e-14 0 
    1.086425 3.888798e-02 9.884100e-15 0 
    1.106624 3.800271e-02 9.309700e-15 0 
    1.127198 3.809058e-02 8.993700e-15 0 
    1.148154 3.853135e-02 8.768700e-15 0 
    1.169499 3.952004e-02 8.668400e-15 0 
    1.188502 3.961083e-02 8.412700e-15 0 
    1.207813 3.942878e-02 8.108400e-15 0 
    1.230269 3.997771e-02 7.923900e-15 0 
    1.250259 4.044071e-02 7.761400e-15 0 
    1.270574 4.044021e-02 7.515100e-15 0 
    1.291219 4.062691e-02 7.310300e-15 0 
    1.309182 4.062708e-02 7.111100e-15 0 
    1.330455 4.109783e-02 6.965300e-15 0 
    1.352073 4.109755e-02 6.744300e-15 0 
    1.370882 4.119214e-02 6.575600e-15 0 
    1.393157 4.157379e-02 6.426000e-15 0 
    1.412538 4.128732e-02 6.207800e-15 0 
    1.432188 4.062738e-02 5.942100e-15 0 
    1.452112 4.081463e-02 5.806800e-15 0 
    1.472313 4.176518e-02 5.780100e-15 0 
    1.492794 4.166949e-02 5.609700e-15 0 
    1.513561 4.293543e-02 5.622600e-15 0 
    1.534617 4.393580e-02 5.596800e-15 0 
    1.555965 4.547980e-02 5.635600e-15 0 
    1.573983 4.621879e-02 5.596800e-15 0 
    1.595879 4.621817e-02 5.444200e-15 0 
    1.614359 4.527065e-02 5.211200e-15 0 
    1.636817 4.675330e-02 5.235200e-15 0 
    1.655770 4.762297e-02 5.211200e-15 0 
    1.674943 4.773259e-02 5.104300e-15 0 
    1.698244 4.873246e-02 5.069200e-15 0 
    1.717909 4.895765e-02 4.976700e-15 0 
    1.737800 4.929664e-02 4.897100e-15 0 
    1.757923 4.828583e-02 4.687500e-15 0 
    1.778279 4.806343e-02 4.559700e-15 0 
    1.798871 4.718643e-02 4.374600e-15 0 
    1.819702 4.643237e-02 4.206700e-15 0 
    1.836538 4.495926e-02 3.998900e-15 0 
    1.857805 4.475252e-02 3.889900e-15 0 
    1.879318 4.434220e-02 3.766500e-15 0 
    1.901077 4.313300e-02 3.580400e-15 0 
    1.918669 4.293489e-02 3.498900e-15 0 
    1.940886 4.333224e-02 3.450900e-15 0 
    1.958844 4.283705e-02 3.349200e-15 0 
    1.981527 4.205489e-02 3.213200e-15 0 
    1.999862 4.166891e-02 3.125600e-15 0 
    2.023020 4.138311e-02 3.033500e-15 0 
    2.041738 4.147851e-02 2.985000e-15 0 
    2.060630 4.081444e-02 2.883600e-15 0 
    2.084490 4.128713e-02 2.850600e-15 0 
    2.103778 4.100284e-02 2.779300e-15 0 
    2.123245 4.081396e-02 2.716000e-15 0 
    2.142890 4.090840e-02 2.672600e-15 0 
    2.162719 4.081459e-02 2.617800e-15 0 
    2.182731 4.072060e-02 2.564100e-15 0 
    2.202926 4.007025e-02 2.477100e-15 0 
    2.223311 4.016278e-02 2.437500e-15 0 
    2.243881 3.988561e-02 2.376500e-15 0 
    2.264644 3.951938e-02 2.311700e-15 0 
    2.285600 3.933822e-02 2.259100e-15 0 
    2.306747 3.904610e-02 2.201400e-15 0 
    2.328092 3.588048e-02 1.986000e-15 0 
    2.344228 3.616709e-02 1.974400e-15 0 
    2.365920 3.255178e-02 1.744600e-15 0 
    2.387810 3.117655e-02 1.640400e-15 0 
    2.409905 3.214143e-02 1.660300e-15 0 
    2.426611 3.002516e-02 1.529700e-15 0 
    2.449063 2.949172e-02 1.475100e-15 0 
    2.466040 2.965673e-02 1.463000e-15 0 
    2.488857 2.814120e-02 1.362900e-15 0 
    2.511887 2.828373e-02 1.344800e-15 0 
    2.529297 2.540598e-02 1.191400e-15 0 
    2.546831 2.560594e-02 1.184300e-15 0 
    2.570395 2.615243e-02 1.187500e-15 0 
    2.588213 2.623492e-02 1.174900e-15 0 
    2.603530 2.626392e-02 1.162400e-15 2 
    2.613210 2.587457e-02 1.136700e-15 2 
    2.622880 2.602515e-02 1.134900e-15 2 
    2.632560 2.611595e-02 1.130500e-15 2 
    2.642240 2.714381e-02 1.166400e-15 2 
    2.651910 2.921119e-02 1.246100e-15 2 
    2.661590 2.969639e-02 1.257600e-15 2 
    2.671260 2.899920e-02 1.219200e-15 2 
    2.680940 2.805018e-02 1.170800e-15 2 
    2.690620 2.738920e-02 1.135000e-15 2 
    2.700290 2.731178e-02 1.123700e-15 2 
    2.709970 2.690084e-02 1.098900e-15 2 
    2.719650 2.678764e-02 1.086500e-15 2 
    2.729320 2.618389e-02 1.054500e-15 2 
    2.739000 2.599735e-02 1.039600e-15 2 
    2.748670 2.564482e-02 1.018300e-15 2 
    2.758350 2.567106e-02 1.012200e-15 2 
    2.768030 2.568810e-02 1.005800e-15 2 
    2.777700 2.602735e-02 1.012000e-15 2 
    2.787380 2.612102e-02 1.008600e-15 2 
    2.797060 2.637056e-02 1.011200e-15 2 
    2.806730 2.630638e-02 1.001800e-15 2 
    2.816410 2.628772e-02 9.942200e-16 2 
    2.826080 2.635621e-02 9.900000e-16 2 
    2.835760 2.679895e-02 9.997700e-16 2 
    2.845440 2.710988e-02 1.004500e-15 2 
    2.855110 2.692002e-02 9.907200e-16 2 
    2.864790 2.651689e-02 9.693000e-16 2 
    2.874470 2.647220e-02 9.611600e-16 2 
    2.884140 2.593662e-02 9.354100e-16 2 
    2.893820 2.515915e-02 9.013100e-16 2 
    2.903490 2.454581e-02 8.734900e-16 2 
    2.913170 2.447637e-02 8.652400e-16 2 
    2.922850 2.474096e-02 8.688100e-16 2 
    2.932520 2.491727e-02 8.692400e-16 2 
    2.942200 2.488380e-02 8.623700e-16 2 
    2.951880 2.486483e-02 8.560700e-16 2 
    2.961550 2.483797e-02 8.495700e-16 2 
    2.971230 2.488907e-02 8.457800e-16 2 
    2.980900 2.433100e-02 8.214600e-16 2 
    2.990580 2.400961e-02 8.053700e-16 2 
    3.000260 2.438222e-02 8.126000e-16 2 
    3.009930 2.472235e-02 8.186500e-16 2 
    3.019610 2.509468e-02 8.256600e-16 2 
    3.029290 2.503865e-02 8.185600e-16 2 
    3.038960 2.489000e-02 8.085300e-16 2 
    3.048640 2.505749e-02 8.088100e-16 2 
    3.058310 2.505645e-02 8.036700e-16 2 
    3.067990 2.456993e-02 7.831000e-16 2 
    3.077670 2.392009e-02 7.576000e-16 2 
    3.087340 2.384093e-02 7.503700e-16 2 
    3.097020 2.376750e-02 7.433900e-16 2 
    3.106700 2.384199e-02 7.410800e-16 2 
    3.116370 2.376403e-02 7.340800e-16 2 
    3.126050 2.400668e-02 7.369900e-16 2 
    3.135720 2.377556e-02 7.254000e-16 2 
    3.145400 2.382497e-02 7.224400e-16 2 
    3.155080 2.412812e-02 7.271500e-16 2 
    3.164750 2.453465e-02 7.348900e-16 2 
    3.174430 2.455699e-02 7.310800e-16 2 
    3.184110 2.430651e-02 7.192300e-16 2 
    3.193780 2.418849e-02 7.114100e-16 2 
    3.203460 2.381402e-02 6.961700e-16 2 
    3.213130 2.348206e-02 6.823400e-16 2 
    3.222810 2.338279e-02 6.753800e-16 2 
    3.232490 2.386445e-02 6.851700e-16 2 
    3.242160 2.493177e-02 7.115500e-16 2 
    3.251840 2.607839e-02 7.398500e-16 2 
    3.261520 2.700155e-02 7.615000e-16 2 
    3.271190 2.768303e-02 7.761100e-16 2 
    3.280870 2.943015e-02 8.202300e-16 2 
    3.290540 3.101761e-02 8.594000e-16 2 
    3.300220 3.324144e-02 9.156200e-16 2 
    3.309900 3.663864e-02 1.003300e-15 2 
    3.319570 4.245096e-02 1.155700e-15 2 
    3.329250 4.844036e-02 1.311100e-15 2 
    3.338930 5.228253e-02 1.406900e-15 2 
    3.348600 5.339315e-02 1.428500e-15 2 
    3.358280 5.152563e-02 1.370600e-15 2 
    3.367950 4.591303e-02 1.214300e-15 2 
    3.377630 3.889118e-02 1.022700e-15 2 
    3.387310 3.321647e-02 8.684900e-16 2 
    3.396980 2.988416e-02 7.769200e-16 2 
    3.406660 2.842262e-02 7.347300e-16 2 
    3.416340 2.773508e-02 7.129000e-16 2 
    3.426010 2.765718e-02 7.068900e-16 2 
    3.435690 2.882843e-02 7.326800e-16 2 
    3.445360 3.044785e-02 7.695000e-16 2 
    3.455040 3.207990e-02 8.062100e-16 2 
    3.464720 3.247639e-02 8.116200e-16 2 
    3.474390 3.209741e-02 7.976900e-16 2 
    3.484070 3.106102e-02 7.676500e-16 2 
    3.493750 3.033466e-02 7.455500e-16 2 
    3.503420 2.954586e-02 7.221600e-16 2 
    3.513100 2.967891e-02 7.214200e-16 2 
    3.522770 2.952689e-02 7.137900e-16 2 
    3.532450 2.895151e-02 6.960500e-16 2 
    3.542130 2.740740e-02 6.553300e-16 2 
    3.551800 2.657788e-02 6.320400e-16 2 
    3.561480 2.565832e-02 6.068600e-16 2 
    3.571160 2.595613e-02 6.105800e-16 2 
    3.580830 2.601525e-02 6.086700e-16 2 
    3.590510 2.563441e-02 5.965300e-16 2 
    3.600180 2.514621e-02 5.820300e-16 2 
    3.609860 2.435424e-02 5.606800e-16 2 
    3.619540 2.407496e-02 5.512900e-16 2 
    3.629210 2.383630e-02 5.429200e-16 2 
    3.638890 2.341012e-02 5.303800e-16 2 
    3.648570 2.355126e-02 5.307500e-16 2 
    3.658240 2.339567e-02 5.244600e-16 2 
    3.667920 2.346583e-02 5.232600e-16 2 
    3.677590 2.362489e-02 5.240400e-16 2 
    3.687270 2.412784e-02 5.323900e-16 2 
    3.696950 2.436221e-02 5.347500e-16 2 
    3.706620 2.434877e-02 5.316700e-16 2 
    3.716300 2.391125e-02 5.194000e-16 2 
    3.725980 2.293969e-02 4.957100e-16 2 
    3.735650 2.282912e-02 4.907700e-16 2 
    3.745330 2.266610e-02 4.847500e-16 2 
    3.755000 2.274616e-02 4.839600e-16 2 
    3.764680 2.238218e-02 4.737700e-16 2 
    3.774360 2.252213e-02 4.742900e-16 2 
    3.784030 2.402613e-02 5.033800e-16 2 
    3.793710 2.682041e-02 5.590600e-16 2 
    3.803390 2.746279e-02 5.695400e-16 2 
    3.813060 2.662848e-02 5.494400e-16 2 
    3.822740 2.425668e-02 4.979700e-16 2 
    3.832410 2.317863e-02 4.734400e-16 2 
    3.842090 2.293272e-02 4.660600e-16 2 
    3.851770 2.265230e-02 4.580500e-16 2 
    3.861440 2.318666e-02 4.665100e-16 2 
    3.871120 2.350537e-02 4.705600e-16 2 
    3.880800 2.385550e-02 4.751900e-16 2 
    3.890470 2.363297e-02 4.684200e-16 2 
    3.900150 2.314988e-02 4.565700e-16 2 
    3.909820 2.277157e-02 4.468900e-16 2 
    3.919500 2.273084e-02 4.438900e-16 2 
    3.929180 2.280157e-02 4.430800e-16 2 
    3.938850 2.437644e-02 4.713600e-16 2 
    3.948530 2.436180e-02 4.687700e-16 2 
    3.958210 2.442082e-02 4.676100e-16 2 
    3.967880 2.287089e-02 4.358000e-16 2 
    3.977560 2.250430e-02 4.267300e-16 2 
    3.987230 2.236425e-02 4.220200e-16 2 
    3.996910 2.232440e-02 4.192300e-16 2 
    4.006590 2.272268e-02 4.246500e-16 2 
    4.016260 2.309220e-02 4.294800e-16 2 
    4.025940 2.313773e-02 4.282600e-16 2 
    4.035620 2.345814e-02 4.321100e-16 2 
    4.045290 2.380416e-02 4.363900e-16 2 
    4.054970 2.472775e-02 4.511600e-16 2 
    4.064640 2.532274e-02 4.598200e-16 2 
    4.074320 2.534224e-02 4.579900e-16 2 
    4.084000 2.520150e-02 4.532900e-16 2 
    4.093670 2.654712e-02 4.752400e-16 2 
    4.103350 3.237791e-02 5.768900e-16 2 
    4.113030 3.698003e-02 6.557900e-16 2 
    4.122700 3.676037e-02 6.488400e-16 2 
    4.132380 3.247393e-02 5.705000e-16 2 
    4.142050 2.732414e-02 4.777900e-16 2 
    4.151730 2.437063e-02 4.241600e-16 2 
    4.161410 2.356485e-02 4.082300e-16 2 
    4.171080 2.392386e-02 4.125300e-16 2 
    4.180760 2.427216e-02 4.166000e-16 2 
    4.190440 2.434430e-02 4.159100e-16 2 
    4.200110 2.379232e-02 4.046100e-16 2 
    4.209790 2.322925e-02 3.932200e-16 2 
    4.219460 2.317645e-02 3.905300e-16 2 
    4.229140 2.351900e-02 3.944900e-16 2 
    4.238820 2.454912e-02 4.098900e-16 2 
    4.248490 2.561849e-02 4.258000e-16 2 
    4.258170 2.604361e-02 4.309000e-16 2 
    4.267850 2.617066e-02 4.310400e-16 2 
    4.277520 2.607897e-02 4.275900e-16 2 
    4.287200 2.616711e-02 4.271000e-16 2 
    4.296870 2.572216e-02 4.179500e-16 2 
    4.306550 2.501040e-02 4.045600e-16 2 
    4.316230 2.476775e-02 3.988400e-16 2 
    4.325900 2.518139e-02 4.036900e-16 2 
    4.335580 2.593144e-02 4.138600e-16 2 
    4.345260 2.620471e-02 4.163600e-16 2 
    4.354930 2.624371e-02 4.151300e-16 2 
    4.364610 2.613255e-02 4.115400e-16 2 
    4.374280 2.627143e-02 4.119000e-16 2 
    4.383960 2.604445e-02 4.065400e-16 2 
    4.393640 2.584558e-02 4.016600e-16 2 
    4.403310 2.572293e-02 3.980000e-16 2 
    4.412990 2.563101e-02 3.948400e-16 2 
    4.422670 2.540454e-02 3.896400e-16 2 
    4.432340 2.583859e-02 3.945700e-16 2 
    4.442020 2.610943e-02 3.969700e-16 2 
    4.451690 2.630449e-02 3.982000e-16 2 
    4.461370 2.847971e-02 4.292600e-16 2 
    4.471050 3.039057e-02 4.560800e-16 2 
    4.480720 3.115994e-02 4.656100e-16 2 
    4.490400 3.319683e-02 4.939100e-16 2 
    4.500080 3.321118e-02 4.920000e-16 2 
    4.509750 3.170399e-02 4.676600e-16 2 
    4.519430 2.961865e-02 4.350300e-16 2 
    4.529100 2.731614e-02 3.995000e-16 2 
    4.538780 2.560096e-02 3.728200e-16 2 
    4.548460 2.500135e-02 3.625400e-16 2 
    4.558130 2.474279e-02 3.572700e-16 2 
    4.567810 2.487860e-02 3.577100e-16 2 
    4.577490 2.484167e-02 3.556700e-16 2 
    4.587160 2.426357e-02 3.459300e-16 2 
    4.596840 2.475278e-02 3.514200e-16 2 
    4.606510 2.663738e-02 3.765900e-16 2 
    4.616190 2.812887e-02 3.960100e-16 2 
    4.625870 2.749729e-02 3.855000e-16 2 
    4.635540 2.449372e-02 3.419600e-16 2 
    4.645220 2.344961e-02 3.260200e-16 2 
    4.654900 2.428415e-02 3.362200e-16 2 
    4.664570 2.608520e-02 3.596600e-16 2 
    4.683920 3.114987e-02 4.259500e-16 2 
    4.693600 3.151962e-02 4.292300e-16 2 
    4.703280 2.909481e-02 3.945800e-16 2 
    4.712950 3.098338e-02 4.184700e-16 2 
    4.722630 3.210105e-02 4.317900e-16 2 
    4.732310 3.247688e-02 4.350600e-16 2 
    4.741980 3.237063e-02 4.318700e-16 2 
    4.751660 3.155239e-02 4.192400e-16 2 
    4.761330 3.062677e-02 4.052900e-16 2 
    4.771010 2.957916e-02 3.898400e-16 2 
    4.780690 2.817488e-02 3.698300e-16 2 
    4.790360 2.788892e-02 3.646000e-16 2 
    4.800040 2.734433e-02 3.560400e-16 2 
    4.809720 2.793590e-02 3.622800e-16 2 
    4.819390 2.780524e-02 3.591400e-16 2 
    4.829070 2.794892e-02 3.595500e-16 2 
    4.838740 2.825139e-02 3.619900e-16 2 
    4.848420 2.847659e-02 3.634200e-16 2 
    4.858100 2.761884e-02 3.510700e-16 2 
    4.867770 2.803930e-02 3.550000e-16 2 
    4.877450 2.786704e-02 3.514200e-16 2 
    4.887130 2.794274e-02 3.509800e-16 2 
    4.896800 3.151914e-02 3.943400e-16 2 
    4.906480 3.297514e-02 4.109300e-16 2 
    4.916150 3.365468e-02 4.177500e-16 2 
    4.925830 3.339832e-02 4.129400e-16 2 
    4.935610 2.809143e-02 3.459500e-16 2 
    4.984966 2.882421e-02 3.479800e-16 0 
    5.034816 2.957680e-02 3.500300e-16 0 
    5.085164 3.034972e-02 3.521000e-16 0 
    5.136016 3.114353e-02 3.541900e-16 0 
    5.187376 3.195967e-02 3.563100e-16 0 
    5.239250 3.279695e-02 3.584400e-16 0 
    5.291642 3.365684e-02 3.605900e-16 0 
    5.335773 3.439328e-02 3.624100e-16 3 
    5.366758 3.373013e-02 3.513300e-16 3 
    5.397744 3.713435e-02 3.823600e-16 3 
    5.428729 5.988723e-02 6.096200e-16 3 
    5.459714 3.536080e-02 3.558800e-16 3 
    5.490700 2.360974e-02 2.349400e-16 3 
    5.521685 3.072479e-02 3.023200e-16 3 
    5.552670 3.280746e-02 3.192200e-16 3 
    5.583656 4.100531e-02 3.945700e-16 3 
    5.614641 4.433668e-02 4.219300e-16 3 
    5.645627 3.078198e-02 2.897300e-16 3 
    5.676612 4.262473e-02 3.968300e-16 3 
    5.707598 4.891497e-02 4.504600e-16 3 
    5.738583 5.673849e-02 5.168800e-16 3 
    5.769568 5.897287e-02 5.314800e-16 3 
    5.800553 4.691993e-02 4.183500e-16 3 
    5.831539 6.011504e-02 5.303200e-16 3 
    5.862525 6.899617e-02 6.022500e-16 3 
    5.893510 7.272840e-02 6.281700e-16 3 
    5.924495 5.850993e-02 5.000900e-16 3 
    5.955481 5.264124e-02 4.452600e-16 3 
    5.986466 6.051925e-02 5.066100e-16 3 
    6.017451 5.611661e-02 4.649300e-16 3 
    6.048437 8.653727e-02 7.096400e-16 3 
    6.079422 8.528621e-02 6.922700e-16 3 
    6.110407 8.952932e-02 7.193600e-16 3 
    6.141393 8.692444e-02 6.914000e-16 3 
    6.172378 9.703371e-02 7.640800e-16 3 
    6.203363 1.153399e-01 8.991800e-16 3 
    6.234349 1.584353e-01 1.222900e-15 3 
    6.265334 2.240380e-01 1.712200e-15 3 
    6.296319 2.885264e-01 2.183400e-15 3 
    6.327305 2.775345e-01 2.079700e-15 3 
    6.358290 2.477014e-01 1.838100e-15 3 
    6.389276 2.036244e-01 1.496400e-15 3 
    6.420261 1.753900e-01 1.276500e-15 3 
    6.451246 1.505344e-01 1.085100e-15 3 
    6.482232 1.276869e-01 9.116300e-16 3 
    6.513217 1.195791e-01 8.456400e-16 3 
    6.544202 1.094747e-01 7.668700e-16 3 
    6.575188 1.003916e-01 6.966300e-16 3 
    6.606173 9.073653e-02 6.237400e-16 3 
    6.637158 8.115675e-02 5.526900e-16 3 
    6.668145 8.503919e-02 5.737600e-16 3 
    6.699129 8.486193e-02 5.672800e-16 3 
    6.730114 1.001309e-01 6.632000e-16 3 
    6.761100 9.720147e-02 6.379100e-16 3 
    6.792085 9.624607e-02 6.258900e-16 3 
    6.823071 9.429728e-02 6.076600e-16 3 
    6.854056 8.848009e-02 5.650300e-16 3 
    6.885041 9.215138e-02 5.831900e-16 3 
    6.916027 9.777383e-02 6.132400e-16 3 
    6.947012 9.491967e-02 5.900400e-16 3 
    6.977998 8.583993e-02 5.288700e-16 3 
    7.008983 1.011861e-01 6.179200e-16 3 
    7.039968 1.084464e-01 6.564400e-16 3 
    7.070954 1.197445e-01 7.184900e-16 3 
    7.101939 1.415546e-01 8.419600e-16 3 
    7.132924 1.193171e-01 7.035400e-16 3 
    7.163910 1.360296e-01 7.951600e-16 3 
    7.194895 1.275820e-01 7.393700e-16 3 
    7.225881 1.321102e-01 7.590600e-16 3 
    7.256866 1.422193e-01 8.101800e-16 3 
    7.287851 1.327678e-01 7.499200e-16 3 
    7.318838 1.559271e-01 8.732900e-16 3 
    7.349822 1.775723e-01 9.861500e-16 3 
    7.380807 1.569263e-01 8.641900e-16 3 
    7.411793 1.710080e-01 9.338800e-16 3 
    7.442778 1.934022e-01 1.047400e-15 3 
    7.473763 2.021284e-01 1.085600e-15 3 
    7.504748 2.417307e-01 1.287600e-15 3 
    7.533706 2.401756e-01 1.269500e-15 3 
    7.535734 2.520220e-01 1.331400e-15 3 
    7.566720 2.625917e-01 1.375900e-15 3 
    7.595799 3.158481e-01 1.642300e-15 3 
    7.597705 2.973998e-01 1.545600e-15 3 
    7.657894 3.773894e-01 1.930600e-15 3 
    7.719988 4.040163e-01 2.033700e-15 3 
    7.782082 4.018815e-01 1.990800e-15 3 
    7.844176 3.651460e-01 1.780300e-15 3 
    7.906271 3.671786e-01 1.762200e-15 3 
    7.968365 3.596136e-01 1.699100e-15 3 
    8.030459 3.172393e-01 1.475800e-15 3 
    8.092554 2.706678e-01 1.239900e-15 3 
    8.154648 2.487257e-01 1.122100e-15 3 
    8.216741 2.116950e-01 9.406601e-16 3 
    8.278836 1.931501e-01 8.454300e-16 3 
    8.340930 1.936349e-01 8.349800e-16 3 
    8.403025 1.929676e-01 8.198500e-16 3 
    8.465119 1.864547e-01 7.806000e-16 3 
    8.527213 2.032484e-01 8.385600e-16 3 
    8.589307 2.200891e-01 8.949600e-16 3 
    8.651402 2.423987e-01 9.715800e-16 3 
    8.713495 2.495098e-01 9.858800e-16 3 
    8.775590 2.410136e-01 9.388800e-16 3 
    8.837684 2.119865e-01 8.142400e-16 3 
    8.899778 1.759166e-01 6.663000e-16 3 
    8.961872 1.385142e-01 5.173900e-16 3 
    9.023966 1.217815e-01 4.486500e-16 3 
    9.086060 1.188401e-01 4.318500e-16 3 
    9.148155 1.185423e-01 4.249400e-16 3 
    9.210249 9.245761e-02 3.269800e-16 3 
    9.272344 7.322606e-02 2.555100e-16 3 
    9.334438 8.029480e-02 2.764600e-16 3 
    9.396532 8.871568e-02 3.014300e-16 3 
    9.458626 8.497144e-02 2.849300e-16 3 
    9.520720 7.907490e-02 2.617100e-16 3 
    9.582815 7.648855e-02 2.498800e-16 3 
    9.644909 8.997928e-02 2.901800e-16 3 
    9.707002 8.566076e-02 2.727300e-16 3 
    9.769098 1.011487e-01 3.179600e-16 3 
    9.831192 1.073453e-01 3.331900e-16 3 
    9.893286 8.809918e-02 2.700300e-16 3 
    9.955380 8.054966e-02 2.438200e-16 3 
   10.017470 8.396594e-02 2.510200e-16 3 
   10.079570 8.139333e-02 2.403400e-16 3 
   10.141659 7.897758e-02 2.303600e-16 3 
   10.203760 7.780990e-02 2.242000e-16 3 
   10.265850 8.491787e-02 2.417300e-16 3 
   10.327949 7.815813e-02 2.198200e-16 3 
   10.390041 7.720435e-02 2.145500e-16 3 
   10.452130 8.409107e-02 2.309200e-16 3 
   10.514230 8.921306e-02 2.421000e-16 3 
   10.576320 9.204094e-02 2.468500e-16 3 
   10.638420 1.407985e-01 3.732200e-16 3 
   10.700510 1.698354e-01 4.449800e-16 3 
   10.762600 1.326835e-01 3.436400e-16 3 
   10.824700 1.264270e-01 3.236900e-16 3 
   10.886791 1.221332e-01 3.091400e-16 3 
   10.948890 1.237303e-01 3.096400e-16 3 
   11.010980 1.315876e-01 3.256000e-16 3 
   11.073080 1.455581e-01 3.561400e-16 3 
   11.135170 1.734318e-01 4.196200e-16 3 
   11.197260 2.072091e-01 4.958000e-16 3 
   11.259360 2.334190e-01 5.523700e-16 3 
   11.321450 3.504097e-01 8.201500e-16 3 
   11.383550 5.210621e-01 1.206300e-15 3 
   11.445640 5.527003e-01 1.265700e-15 3 
   11.507740 4.605407e-01 1.043300e-15 3 
   11.569830 3.601842e-01 8.072200e-16 3 
   11.631920 2.859869e-01 6.341100e-16 3 
   11.694020 2.454756e-01 5.385200e-16 3 
   11.756110 2.239907e-01 4.862100e-16 3 
   11.818209 2.018093e-01 4.334700e-16 3 
   11.880299 1.886686e-01 4.010200e-16 3 
   11.942400 1.871947e-01 3.937600e-16 3 
   12.004490 1.998150e-01 4.159700e-16 3 
   12.066580 2.171853e-01 4.474900e-16 3 
   12.128680 2.233052e-01 4.554000e-16 3 
   12.190770 2.219117e-01 4.479600e-16 3 
   12.252870 2.150953e-01 4.298100e-16 3 
   12.314959 2.112498e-01 4.178800e-16 3 
   12.377051 2.119914e-01 4.151500e-16 3 
   12.439150 2.391751e-01 4.637200e-16 3 
   12.501240 2.582491e-01 4.957400e-16 3 
   12.563340 2.549970e-01 4.846700e-16 3 
   12.625430 2.508023e-01 4.720200e-16 3 
   12.687530 2.655846e-01 4.949600e-16 3 
   12.749620 2.894578e-01 5.342100e-16 3 
   12.811710 3.123035e-01 5.708000e-16 3 
   12.873810 3.439498e-01 6.225900e-16 3 
   12.935900 4.026252e-01 7.218200e-16 3 
   12.998000 5.427567e-01 9.637700e-16 3 
   13.060090 4.602722e-01 8.095500e-16 3 
   13.122180 2.677866e-01 4.665500e-16 3 
   13.184280 2.114990e-01 3.650200e-16 3 
   13.246370 2.017161e-01 3.448800e-16 3 
   13.308470 2.018761e-01 3.419400e-16 3 
   13.370559 2.036807e-01 3.418000e-16 3 
   13.432659 2.043261e-01 3.397200e-16 3 
   13.494750 1.962763e-01 3.233400e-16 3 
   13.556841 2.032449e-01 3.317600e-16 3 
   13.618941 2.080912e-01 3.365800e-16 3 
   13.681030 2.092442e-01 3.353800e-16 3 
   13.743130 2.185771e-01 3.471800e-16 3 
   13.805220 2.246478e-01 3.536200e-16 3 
   13.867320 2.212313e-01 3.451300e-16 3 
   13.929409 2.054826e-01 3.177100e-16 3 
   13.991500 1.984701e-01 3.041500e-16 3 
   14.053600 2.053972e-01 3.119900e-16 3 
   14.115691 1.994852e-01 3.003500e-16 3 
   14.177789 2.102830e-01 3.138400e-16 3 
   14.239880 2.066269e-01 3.057000e-16 3 
   14.301980 2.145285e-01 3.146400e-16 3 
   14.364070 2.062715e-01 2.999200e-16 3 
   14.426159 2.035633e-01 2.934400e-16 3 
   14.488261 2.006737e-01 2.868000e-16 3 
   14.541691 2.058712e-01 2.920700e-16 3 
   14.633380 2.076975e-01 2.909800e-16 3 
   14.725080 1.916470e-01 2.651600e-16 3 
   14.816770 1.846157e-01 2.522800e-16 3 
   14.908459 1.967835e-01 2.656100e-16 3 
   15.000150 1.969839e-01 2.626400e-16 3 
   15.091850 1.863261e-01 2.454200e-16 3 
   15.183541 2.076089e-01 2.701600e-16 3 
   15.275230 2.078838e-01 2.672800e-16 3 
   15.366930 1.981000e-01 2.516700e-16 3 
   15.458620 2.131364e-01 2.675700e-16 3 
   15.550309 2.095705e-01 2.600000e-16 3 
   15.642000 2.265338e-01 2.777600e-16 3 
   15.733700 4.219066e-01 5.113000e-16 3 
   15.825391 5.792913e-01 6.939200e-16 3 
   15.917080 3.411573e-01 4.039700e-16 3 
   16.008780 2.433730e-01 2.848900e-16 3 
   16.100470 2.360763e-01 2.732100e-16 3 
   16.192159 2.303479e-01 2.635700e-16 3 
   16.283859 2.541332e-01 2.875200e-16 3 
   16.375550 2.567619e-01 2.872500e-16 3 
   16.467239 2.680515e-01 2.965500e-16 3 
   16.558930 2.841698e-01 3.109100e-16 3 
   16.650631 3.502787e-01 3.790300e-16 3 
   16.742319 3.721986e-01 3.983500e-16 3 
   16.834009 3.458889e-01 3.661700e-16 3 
   16.925700 3.459715e-01 3.623000e-16 3 
   17.017400 3.265149e-01 3.382500e-16 3 
   17.109091 3.368048e-01 3.451800e-16 3 
   17.200781 3.968166e-01 4.023600e-16 3 
   17.292481 5.292231e-01 5.309400e-16 3 
   17.384170 4.672862e-01 4.638700e-16 3 
   17.475861 3.824494e-01 3.756800e-16 3 
   17.567561 3.866793e-01 3.758800e-16 3 
   17.659250 4.001440e-01 3.849400e-16 3 
   17.750941 3.709834e-01 3.532100e-16 3 
   17.842630 3.465024e-01 3.265200e-16 3 
   17.934330 3.696074e-01 3.447400e-16 3 
   18.026020 3.654355e-01 3.373900e-16 3 
   18.117709 3.577393e-01 3.269500e-16 3 
   18.209409 3.666640e-01 3.317400e-16 3 
   18.301100 3.603626e-01 3.227800e-16 3 
   18.392789 3.568220e-01 3.164300e-16 3 
   18.484489 3.435328e-01 3.016300e-16 3 
   18.576180 3.677689e-01 3.197300e-16 3 
   18.667870 3.710250e-01 3.194000e-16 3 
   18.759559 3.852597e-01 3.284200e-16 3 
   18.851259 4.061523e-01 3.428700e-16 3 
   18.942950 6.422794e-01 5.369700e-16 3 
   19.034639 8.174245e-01 6.768300e-16 3 
   19.126341 5.109609e-01 4.190300e-16 3 
   19.218031 4.123477e-01 3.349400e-16 3 
   19.309719 4.279747e-01 3.443400e-16 3 
   19.401409 4.275067e-01 3.407200e-16 3 
   19.493111 4.235272e-01 3.343800e-16 3 
   19.584800 3.903407e-01 3.053000e-16 3 
   19.676491 4.207830e-01 3.260500e-16 3 
   19.768191 4.414527e-01 3.389000e-16 3 
   19.859880 4.247454e-01 3.230700e-16 3 
   19.951570 4.357619e-01 3.284100e-16 3 
   20.043261 4.407673e-01 3.291500e-16 3 
   20.134961 4.469448e-01 3.307300e-16 3 
   20.226650 4.573796e-01 3.353900e-16 3 
   20.318341 4.565129e-01 3.317400e-16 3 
   20.410041 4.886641e-01 3.519200e-16 3 
   20.555241 4.530660e-01 3.216900e-16 3 
   20.730739 5.298698e-01 3.698800e-16 3 
   20.906339 5.126016e-01 3.518400e-16 3 
   21.082041 4.909718e-01 3.314000e-16 3 
   21.257830 5.512671e-01 3.659700e-16 3 
   21.433709 5.581145e-01 3.644600e-16 3 
   21.609689 5.439056e-01 3.494200e-16 3 
   21.785761 5.673600e-01 3.586200e-16 3 
   21.961930 6.458511e-01 4.017100e-16 3 
   22.138200 6.124288e-01 3.748800e-16 3 
   22.314559 5.892285e-01 3.550000e-16 3 
   22.491020 6.244500e-01 3.703400e-16 3 
   22.667570 6.652068e-01 3.883900e-16 3 
   22.844219 6.522707e-01 3.749700e-16 3 
   23.020969 6.361700e-01 3.601200e-16 3 
   23.197809 6.790588e-01 3.785600e-16 3 
   23.374750 7.102744e-01 3.899900e-16 3 
   23.551791 7.265473e-01 3.929500e-16 3 
   23.728920 7.281889e-01 3.879800e-16 3 
   23.906161 7.381553e-01 3.874800e-16 3 
   24.083481 7.620612e-01 3.941600e-16 3 
   24.260909 7.955995e-01 4.055100e-16 3 
   24.438441 7.998203e-01 4.017600e-16 3 
   24.616061 8.054900e-01 3.987900e-16 3 
   24.793780 8.330227e-01 4.065300e-16 3 
   24.971600 8.454509e-01 4.067400e-16 3 
   25.149509 8.604079e-01 4.081000e-16 3 
   25.327530 8.653402e-01 4.046900e-16 3 
   25.505641 8.703977e-01 4.013900e-16 3 
   25.683861 8.861443e-01 4.030000e-16 3 
   25.862169 9.206744e-01 4.129500e-16 3 
   26.040581 9.324943e-01 4.125400e-16 3 
   26.219091 9.940163e-01 4.337900e-16 3 
   26.397700 1.009766e+00 4.347200e-16 3 
   26.576409 9.648604e-01 4.098200e-16 3 
   26.755222 9.672456e-01 4.053600e-16 3 
   26.934131 9.949270e-01 4.114400e-16 3 
   27.113141 1.023878e+00 4.178400e-16 3 
   27.292250 1.033677e+00 4.163200e-16 3 
   27.471459 1.043196e+00 4.146900e-16 3 
   27.650781 1.062874e+00 4.170500e-16 3 
   27.830191 1.075963e+00 4.167600e-16 3 
   28.009700 1.105265e+00 4.226400e-16 3 
   28.189319 1.204936e+00 4.549000e-16 3 
   28.369041 1.134181e+00 4.227800e-16 3 
   28.548850 1.195387e+00 4.400000e-16 3 
   28.728769 1.191959e+00 4.332600e-16 3 
   28.908791 1.186051e+00 4.257600e-16 3 
   29.088922 1.186126e+00 4.205300e-16 3 
   29.269150 1.209579e+00 4.235800e-16 3 
   29.449472 1.161132e+00 4.016500e-16 3 
   29.629909 1.258339e+00 4.299900e-16 3 
   29.810441 1.273127e+00 4.297900e-16 3 
   29.991078 1.275321e+00 4.253600e-16 3 
   30.171819 1.273776e+00 4.197700e-16 3 
   30.352659 1.393073e+00 4.536300e-16 3 
   30.533609 1.331513e+00 4.284600e-16 3 
   30.714659 1.383105e+00 4.398300e-16 3 
   30.895809 1.372040e+00 4.312100e-16 3 
   31.077069 1.400194e+00 4.349400e-16 3 
   31.258441 1.381638e+00 4.242100e-16 3 
   31.439909 1.417760e+00 4.302900e-16 3 
   31.621481 1.416284e+00 4.249200e-16 3 
   31.803150 1.525185e+00 4.523800e-16 3 
   31.984941 1.468125e+00 4.305200e-16 3 
   32.166822 1.517670e+00 4.400300e-16 3 
   32.348819 1.593772e+00 4.569100e-16 3 
   32.530909 1.594410e+00 4.519900e-16 3 
   32.713119 1.616887e+00 4.532700e-16 3 
   32.895431 1.628575e+00 4.515000e-16 3 
   33.077838 1.754933e+00 4.811800e-16 3 
   33.260359 1.748504e+00 4.741700e-16 3 
   33.442991 1.789419e+00 4.799800e-16 3 
   33.625728 1.856479e+00 4.925700e-16 3 
   33.808572 2.090507e+00 5.486800e-16 3 
   33.991519 2.823431e+00 7.330900e-16 3 
   34.174569 2.247003e+00 5.771900e-16 3 
   34.357731 1.772727e+00 4.505200e-16 3 
   34.541013 1.827523e+00 4.595300e-16 3 
   34.724381 1.947500e+00 4.845400e-16 3 
   34.907872 1.974310e+00 4.860600e-16 3 
