# NGC 1614       
# 
# An Atlas of Galaxy Spectral Energy Distributions from the Ultraviolet to the Mid-Infrared
# Brown et al. (2014)
# http://dx.doi.org/10.5072/03/529D3551F0117
# http://dx.doi.org/10.17909/t9-5bxk-dh29
# 
# The Spectral Energy Distributions of Active Galactic Nuclei
# Brown et al. (2019)
# http://dx.doi.org/10.17909/t9-3dbt-8734
# 
# Column 1: Observed wavelength (um)
# Column 2: f_nu (Jy)
# Column 3: f_lam (erg/s/cm2/A)
# Column 4: Source (0 = model, 1 = Optical Spectrun, 2 = Akari, 3 = Spitzer IRS)
# 
    0.010162 1.531817e-20 4.450100e-29 0 
    0.010351 2.781080e-20 7.787000e-29 0 
    0.010568 4.583827e-20 1.231300e-28 0 
    0.010765 7.625634e-20 1.974100e-28 0 
    0.010965 1.280142e-19 3.194200e-28 0 
    0.011169 2.444991e-19 5.879900e-28 0 
    0.011588 5.933015e-19 1.325500e-27 0 
    0.011995 1.312953e-18 2.737600e-27 0 
    0.012303 6.827517e-18 1.353200e-26 0 
    0.012706 1.359130e-17 2.525600e-26 0 
    0.012912 1.846032e-17 3.321800e-26 0 
    0.013002 2.179080e-17 3.867000e-26 0 
    0.013305 3.351813e-17 5.680300e-26 0 
    0.013397 4.367816e-17 7.300800e-26 0 
    0.013614 5.730867e-17 9.276200e-26 0 
    0.013932 9.778791e-17 1.511400e-25 0 
    0.014223 1.429677e-16 2.120200e-25 0 
    0.014521 4.911830e-16 6.988300e-25 0 
    0.014928 1.664356e-15 2.240600e-24 0 
    0.015346 2.548264e-15 3.246200e-24 0 
    0.015740 3.883774e-15 4.702900e-24 0 
    0.016144 5.865015e-15 6.751000e-24 0 
    0.016444 7.857072e-15 8.717000e-24 0 
    0.016866 1.167527e-14 1.231300e-23 0 
    0.017258 1.668095e-14 1.680200e-23 0 
    0.017579 2.183956e-14 2.120200e-23 0 
    0.017989 3.056765e-14 2.833800e-23 0 
    0.018281 3.901615e-14 3.502400e-23 0 
    0.018493 4.584162e-14 4.021300e-23 0 
    0.018880 6.255300e-14 5.264600e-23 0 
    0.019409 9.104435e-14 7.250500e-23 0 
    0.019724 1.140875e-13 8.797700e-23 0 
    0.020137 1.507374e-13 1.115200e-22 0 
    0.020512 1.978189e-13 1.410500e-22 0 
    0.020845 2.422416e-13 1.672500e-22 0 
    0.021330 3.185844e-13 2.100700e-22 0 
    0.021928 4.788978e-13 2.987900e-22 0 
    0.022336 6.099015e-13 3.667500e-22 0 
    0.022646 7.165248e-13 4.191500e-22 0 
    0.023067 9.062142e-13 5.109400e-22 0 
    0.023388 1.571217e-12 8.617300e-22 0 
    0.023768 3.035492e-12 1.612000e-21 0 
    0.024378 4.844428e-12 2.445500e-21 0 
    0.025003 5.864532e-12 2.814300e-21 0 
    0.025586 7.857030e-12 3.600600e-21 0 
    0.026122 8.021583e-12 3.526700e-21 0 
    0.026424 1.035728e-11 4.450100e-21 0 
    0.026792 1.251002e-11 5.228400e-21 0 
    0.027353 1.497121e-11 6.003000e-21 0 
    0.027861 1.767022e-11 6.829200e-21 0 
    0.028314 2.066577e-11 7.733400e-21 0 
    0.028840 2.433549e-11 8.777500e-21 0 
    0.029444 2.794090e-11 9.668700e-21 0 
    0.030061 3.390546e-11 1.125600e-20 0 
    0.030549 3.839355e-11 1.234200e-20 0 
    0.031261 4.734125e-11 1.453300e-20 0 
    0.032285 6.298747e-11 1.812900e-20 0 
    0.033343 8.095805e-11 2.184600e-20 0 
    0.034356 1.016858e-10 2.584500e-20 0 
    0.035318 1.256716e-10 3.022500e-20 0 
    0.036308 1.531962e-10 3.486300e-20 0 
    0.037154 1.854640e-10 4.030600e-20 0 
    0.038107 2.199174e-10 4.543300e-20 0 
    0.039084 2.542418e-10 4.993100e-20 0 
    0.040087 3.142371e-10 5.866400e-20 0 
    0.041115 3.760504e-10 6.673700e-20 0 
    0.042073 4.337663e-10 7.351400e-20 0 
    0.042855 4.844515e-10 7.913500e-20 0 
    0.043652 5.423235e-10 8.538300e-20 0 
    0.044771 6.430452e-10 9.624300e-20 0 
    0.045814 7.349028e-10 1.050400e-19 0 
    0.046774 8.227613e-10 1.128200e-19 0 
    0.047753 9.381356e-10 1.234200e-19 0 
    0.048753 1.074576e-09 1.356300e-19 0 
    0.049774 1.200160e-09 1.453300e-19 0 
    0.050816 1.384353e-09 1.608300e-19 0 
    0.051404 1.775145e-09 2.015400e-19 0 
    0.052000 4.615908e-09 5.121200e-19 0 
    0.052845 5.299785e-09 5.693400e-19 0 
    0.053827 6.197906e-09 6.417500e-19 0 
    0.054828 6.625967e-09 6.612500e-19 0 
    0.055847 1.057407e-08 1.017100e-18 0 
    0.056885 1.406863e-08 1.304300e-18 0 
    0.057943 1.775165e-08 1.586200e-18 0 
    0.058884 1.854557e-08 1.604600e-18 0 
    0.059979 2.571839e-08 2.144700e-18 0 
    0.060954 2.939369e-08 2.373400e-18 0 
    0.061944 3.865837e-08 3.022500e-18 0 
    0.062951 4.855654e-08 3.675900e-18 0 
    0.063973 5.784129e-08 4.240000e-18 0 
    0.065013 6.342290e-08 4.501600e-18 0 
    0.066069 7.984373e-08 5.487400e-18 0 
    0.066834 9.146186e-08 6.142800e-18 0 
    0.067608 1.026230e-07 6.735500e-18 0 
    0.068549 1.120077e-07 7.151000e-18 0 
    0.069663 1.197429e-07 7.402300e-18 0 
    0.070632 1.695388e-07 1.019500e-17 0 
    0.071614 1.730720e-07 1.012400e-17 0 
    0.072778 2.281615e-07 1.292300e-17 0 
    0.073790 2.548243e-07 1.404000e-17 0 
    0.074645 2.819926e-07 1.518300e-17 0 
    0.075683 3.445533e-07 1.804600e-17 0 
    0.076736 3.946807e-07 2.010800e-17 0 
    0.077804 4.490055e-07 2.225200e-17 0 
    0.078705 5.202947e-07 2.519800e-17 0 
    0.079799 6.028897e-07 2.840300e-17 0 
    0.080724 6.656683e-07 3.064600e-17 0 
    0.081846 7.400129e-07 3.314100e-17 0 
    0.082794 8.114081e-07 3.551100e-17 0 
    0.083753 9.467793e-07 4.049200e-17 0 
    0.084918 8.208117e-07 3.414800e-17 0 
    0.085901 1.117498e-06 4.543300e-17 0 
    0.086896 1.219674e-06 4.845800e-17 0 
    0.087902 1.387546e-06 5.387300e-17 0 
    0.088920 1.574870e-06 5.975400e-17 0 
    0.089950 1.812385e-06 6.720000e-17 0 
    0.090991 2.014865e-06 7.300800e-17 0 
    0.092045 2.119567e-06 7.505300e-17 0 
    0.092897 3.525870e-06 1.225700e-16 0 
    0.093972 2.711713e-05 9.212300e-16 0 
    0.095060 6.342350e-05 2.105600e-15 0 
    0.095940 1.280098e-04 4.172200e-15 0 
    0.097051 1.906542e-04 6.072500e-15 0 
    0.097949 2.255519e-04 7.052900e-15 0 
    0.099083 3.666487e-05 1.120400e-15 0 
    0.100000 2.085667e-04 6.257000e-15 0 
    0.101158 2.318716e-04 6.797800e-15 0 
    0.102094 3.542146e-04 1.019500e-14 0 
    0.103039 3.542197e-04 1.000900e-14 0 
    0.104232 1.567647e-04 4.328800e-15 0 
    0.105196 2.680676e-04 7.267200e-15 0 
    0.106170 5.385794e-04 1.433400e-14 0 
    0.107152 5.485885e-04 1.433400e-14 0 
    0.108143 4.490066e-04 1.151800e-14 0 
    0.109144 5.575009e-04 1.404000e-14 0 
    0.110154 4.563157e-04 1.128200e-14 0 
    0.111173 6.313199e-04 1.532400e-14 0 
    0.112202 6.240930e-04 1.487200e-14 0 
    0.113240 6.183821e-04 1.446700e-14 0 
    0.114288 5.717998e-04 1.313300e-14 0 
    0.115345 7.607494e-04 1.715400e-14 0 
    0.116413 7.132862e-04 1.579000e-14 0 
    0.117220 7.838971e-04 1.711500e-14 0 
    0.118304 8.380241e-04 1.796300e-14 0 
    0.119399 5.932447e-04 1.248400e-14 0 
    0.120504 8.754840e-04 1.808700e-14 0 
    0.121339 6.255377e-04 1.274600e-14 0 
    0.122462 4.584065e-04 9.170000e-15 0 
    0.123311 3.113499e-04 6.142800e-15 0 
    0.124451 6.749177e-04 1.307300e-14 0 
    0.125603 1.059839e-03 2.015400e-14 0 
    0.126474 1.189172e-03 2.230300e-14 0 
    0.127644 1.167501e-03 2.149700e-14 0 
    0.128529 1.038098e-03 1.885200e-14 0 
    0.129420 1.355986e-03 2.428700e-14 0 
    0.130617 1.456310e-03 2.560800e-14 0 
    0.131522 1.167444e-03 2.024700e-14 0 
    0.132434 1.205732e-03 2.062400e-14 0 
    0.133660 1.546156e-03 2.596400e-14 0 
    0.134586 1.507457e-03 2.496700e-14 0 
    0.135519 1.371650e-03 2.240600e-14 0 
    0.136773 1.675885e-03 2.687600e-14 0 
    0.137721 1.664361e-03 2.632500e-14 0 
    0.138676 1.524957e-03 2.378900e-14 0 
    0.139637 1.633974e-03 2.514000e-14 0 
    0.140605 1.695324e-03 2.572600e-14 0 
    0.141579 1.490183e-03 2.230300e-14 0 
    0.142889 1.604185e-03 2.357100e-14 0 
    0.143880 1.695311e-03 2.456800e-14 0 
    0.144877 1.779267e-03 2.543100e-14 0 
    0.145881 1.824940e-03 2.572600e-14 0 
    0.146555 1.950952e-03 2.725000e-14 0 
    0.146893 1.987221e-03 2.762900e-14 0 
    0.147911 1.973584e-03 2.706300e-14 0 
    0.148936 1.867423e-03 2.525600e-14 0 
    0.149969 1.915383e-03 2.554900e-14 0 
    0.151008 1.987242e-03 2.614400e-14 0 
    0.152055 2.057051e-03 2.669100e-14 0 
    0.152757 1.968982e-03 2.531400e-14 0 
    0.153462 1.779325e-03 2.266600e-14 0 
    0.154170 1.928646e-03 2.434300e-14 0 
    0.154882 1.924192e-03 2.406400e-14 0 
    0.155955 1.710969e-03 2.110400e-14 0 
    0.157036 1.889062e-03 2.298100e-14 0 
    0.158125 1.841842e-03 2.209900e-14 0 
    0.158855 1.928620e-03 2.292800e-14 0 
    0.159956 2.095317e-03 2.456800e-14 0 
    0.161065 2.234898e-03 2.584500e-14 0 
    0.162181 2.324105e-03 2.650800e-14 0 
    0.162930 2.329428e-03 2.632500e-14 0 
    0.164059 2.400222e-03 2.675300e-14 0 
    0.165196 2.329450e-03 2.560800e-14 0 
    0.165959 2.524903e-03 2.750200e-14 0 
    0.167109 2.607676e-03 2.801400e-14 0 
    0.168267 2.490292e-03 2.638600e-14 0 
    0.169044 2.743093e-03 2.879800e-14 0 
    0.169824 2.548319e-03 2.650800e-14 0 
    0.170216 2.807048e-03 2.906500e-14 0 
    0.171002 2.952923e-03 3.029500e-14 0 
    0.172187 2.846045e-03 2.879800e-14 0 
    0.173380 2.787722e-03 2.782100e-14 0 
    0.174181 2.668418e-03 2.638600e-14 0 
    0.175388 2.711783e-03 2.644700e-14 0 
    0.176198 2.932580e-03 2.833800e-14 0 
    0.177419 2.919118e-03 2.782100e-14 0 
    0.178238 3.142356e-03 2.967400e-14 0 
    0.179473 2.973357e-03 2.769300e-14 0 
    0.180302 3.056695e-03 2.820800e-14 0 
    0.181552 3.186023e-03 2.899800e-14 0 
    0.182390 3.421752e-03 3.085800e-14 0 
    0.183231 3.477330e-03 3.107200e-14 0 
    0.184502 3.237752e-03 2.853400e-14 0 
    0.185353 3.390339e-03 2.960500e-14 0 
    0.186638 3.328480e-03 2.866600e-14 0 
    0.187499 3.106373e-03 2.650800e-14 0 
    0.188365 3.135134e-03 2.650800e-14 0 
    0.189671 3.290401e-03 2.743900e-14 0 
    0.190546 3.641186e-03 3.008600e-14 0 
    0.191426 3.367087e-03 2.756600e-14 0 
    0.192309 3.237716e-03 2.626400e-14 0 
    0.193642 3.566486e-03 2.853400e-14 0 
    0.194536 3.437520e-03 2.725000e-14 0 
    0.195434 3.413820e-03 2.681400e-14 0 
    0.196789 3.649659e-03 2.827300e-14 0 
    0.197697 3.812785e-03 2.926600e-14 0 
    0.198610 3.591289e-03 2.731300e-14 0 
    0.199986 4.020237e-03 3.015600e-14 0 
    0.200909 4.209606e-03 3.128700e-14 0 
    0.201372 3.992485e-03 2.953700e-14 0 
    0.202768 3.955935e-03 2.886500e-14 0 
    0.203704 4.171110e-03 3.015600e-14 0 
    0.204645 4.094985e-03 2.933400e-14 0 
    0.205589 4.377717e-03 3.107200e-14 0 
    0.206538 4.142371e-03 2.913200e-14 0 
    0.207970 4.357590e-03 3.022500e-14 0 
    0.208930 4.238876e-03 2.913200e-14 0 
    0.209894 4.347543e-03 2.960500e-14 0 
    0.210863 4.680048e-03 3.157700e-14 0 
    0.211349 4.397902e-03 2.953700e-14 0 
    0.211836 4.626411e-03 3.092900e-14 0 
    0.212814 4.438551e-03 2.940100e-14 0 
    0.213796 4.583976e-03 3.008600e-14 0 
    0.214783 4.690829e-03 3.050500e-14 0 
    0.215774 4.822211e-03 3.107200e-14 0 
    0.216770 4.626403e-03 2.953700e-14 0 
    0.217771 4.701636e-03 2.974200e-14 0 
    0.218776 4.968811e-03 3.114400e-14 0 
    0.219786 4.923175e-03 3.057500e-14 0 
    0.220801 4.946000e-03 3.043500e-14 0 
    0.221820 4.878095e-03 2.974200e-14 0 
    0.222844 5.155312e-03 3.114400e-14 0 
    0.223872 5.107928e-03 3.057500e-14 0 
    0.224905 4.991626e-03 2.960500e-14 0 
    0.225944 4.889295e-03 2.873200e-14 0 
    0.226986 5.190907e-03 3.022500e-14 0 
    0.228034 5.096125e-03 2.940100e-14 0 
    0.229087 5.003175e-03 2.860000e-14 0 
    0.230144 5.179041e-03 2.933400e-14 0 
    0.231207 5.337293e-03 2.995300e-14 0 
    0.232274 5.500146e-03 3.058400e-14 0 
    0.233346 5.289671e-03 2.914400e-14 0 
    0.234423 5.351617e-03 2.921500e-14 0 
    0.234963 5.194115e-03 2.822500e-14 0 
    0.236048 4.251705e-03 2.289200e-14 0 
    0.237137 5.053934e-03 2.696200e-14 0 
    0.238232 5.043014e-03 2.665700e-14 0 
    0.239332 5.330268e-03 2.791700e-14 0 
    0.240436 5.126351e-03 2.660300e-14 0 
    0.241546 5.270645e-03 2.710100e-14 0 
    0.242103 5.068536e-03 2.594200e-14 0 
    0.243220 5.394432e-03 2.735700e-14 0 
    0.244343 5.248136e-03 2.637100e-14 0 
    0.245471 5.395926e-03 2.686500e-14 0 
    0.246604 5.638023e-03 2.781300e-14 0 
    0.247172 5.459563e-03 2.680900e-14 0 
    0.248313 5.770492e-03 2.807600e-14 0 
    0.249460 5.758169e-03 2.775900e-14 0 
    0.250611 5.798867e-03 2.769900e-14 0 
    0.251189 5.680314e-03 2.700800e-14 0 
    0.252348 5.921558e-03 2.789700e-14 0 
    0.253513 5.629736e-03 2.627900e-14 0 
    0.254683 6.173918e-03 2.855500e-14 0 
    0.255270 5.775376e-03 2.658900e-14 0 
    0.255859 6.020272e-03 2.758900e-14 0 
    0.256448 5.816307e-03 2.653200e-14 0 
    0.257632 5.911733e-03 2.672000e-14 0 
    0.258821 5.858351e-03 2.623600e-14 0 
    0.259418 6.163123e-03 2.747400e-14 0 
    0.260615 6.149945e-03 2.716400e-14 0 
    0.261818 6.470537e-03 2.831800e-14 0 
    0.262422 6.485964e-03 2.825500e-14 0 
    0.263633 6.516773e-03 2.812900e-14 0 
    0.264850 6.413405e-03 2.742900e-14 0 
    0.265461 6.413904e-03 2.730500e-14 0 
    0.266686 6.609788e-03 2.788100e-14 0 
    0.267917 6.749189e-03 2.820800e-14 0 
    0.268534 7.100482e-03 2.954000e-14 0 
    0.269774 7.183917e-03 2.961300e-14 0 
    0.271019 6.877245e-03 2.808900e-14 0 
    0.271644 7.136029e-03 2.901200e-14 0 
    0.272898 7.170043e-03 2.888300e-14 0 
    0.273527 7.007362e-03 2.809800e-14 0 
    0.274789 7.155232e-03 2.842800e-14 0 
    0.276058 7.058133e-03 2.778500e-14 0 
    0.276694 7.091202e-03 2.778700e-14 0 
    0.277971 7.409474e-03 2.876800e-14 0 
    0.278612 6.867971e-03 2.654300e-14 0 
    0.279898 6.980612e-03 2.673100e-14 0 
    0.281190 7.193853e-03 2.729500e-14 0 
    0.281838 7.464286e-03 2.819100e-14 0 
    0.283139 7.414175e-03 2.774500e-14 0 
    0.283792 6.578067e-03 2.450300e-14 0 
    0.285102 7.001189e-03 2.584000e-14 0 
    0.285759 7.694926e-03 2.827000e-14 0 
    0.287078 7.839199e-03 2.853600e-14 0 
    0.287740 7.573747e-03 2.744300e-14 0 
    0.289068 7.592289e-03 2.725800e-14 0 
    0.289734 7.592897e-03 2.713500e-14 0 
    0.291072 7.970449e-03 2.822300e-14 0 
    0.292415 7.953247e-03 2.790400e-14 0 
    0.293089 8.027463e-03 2.803500e-14 0 
    0.294442 8.047420e-03 2.784700e-14 0 
    0.295801 8.408580e-03 2.883000e-14 0 
    0.297852 8.372111e-03 2.831100e-14 0 
    0.299916 8.393497e-03 2.799400e-14 0 
    0.301995 8.571371e-03 2.819500e-14 0 
    0.304089 8.692807e-03 2.820200e-14 0 
    0.305492 8.794982e-03 2.827200e-14 0 
    0.307610 8.940384e-03 2.834500e-14 0 
    0.309742 9.004618e-03 2.815700e-14 0 
    0.311889 9.111077e-03 2.809900e-14 0 
    0.314051 9.240460e-03 2.810700e-14 0 
    0.316228 9.307014e-03 2.792100e-14 0 
    0.317687 9.329847e-03 2.773300e-14 0 
    0.319890 9.462419e-03 2.774100e-14 0 
    0.322107 9.552532e-03 2.762100e-14 0 
    0.324340 9.423847e-03 2.687500e-14 0 
    0.325837 9.667465e-03 2.731700e-14 0 
    0.328095 9.625734e-03 2.682600e-14 0 
    0.330370 9.897936e-03 2.720600e-14 0 
    0.331894 1.006070e-02 2.740000e-14 0 
    0.334195 1.015675e-02 2.728200e-14 0 
    0.336512 1.030072e-02 2.728900e-14 0 
    0.337287 1.054162e-02 2.779900e-14 0 
    0.338065 1.066459e-02 2.799400e-14 0 
    0.338844 1.076431e-02 2.812600e-14 0 
    0.339625 1.032839e-02 2.686300e-14 0 
    0.340408 1.079130e-02 2.793800e-14 0 
    0.341193 1.028273e-02 2.649900e-14 0 
    0.341979 1.047518e-02 2.687100e-14 0 
    0.342768 1.026118e-02 2.620100e-14 0 
    0.343558 1.045292e-02 2.656800e-14 0 
    0.344350 1.092133e-02 2.763100e-14 0 
    0.345144 1.092251e-02 2.750700e-14 0 
    0.345939 1.065017e-02 2.669800e-14 0 
    0.346737 1.077470e-02 2.688600e-14 0 
    0.347536 1.097620e-02 2.726300e-14 0 
    0.348337 1.102766e-02 2.726500e-14 0 
    0.349140 1.110538e-02 2.733100e-14 0 
    0.349945 1.072926e-02 2.628400e-14 0 
    0.350752 1.144479e-02 2.790800e-14 0 
    0.351560 1.088084e-02 2.641100e-14 0 
    0.352371 1.093193e-02 2.641300e-14 0 
    0.353183 1.088300e-02 2.617400e-14 0 
    0.353997 1.101008e-02 2.635800e-14 0 
    0.354813 1.121574e-02 2.672700e-14 0 
    0.355631 1.106305e-02 2.624200e-14 0 
    0.356451 1.103874e-02 2.606400e-14 0 
    0.357273 1.093866e-02 2.570900e-14 0 
    0.358096 1.129773e-02 2.643100e-14 0 
    0.358922 1.140359e-02 2.655600e-14 0 
    0.359749 1.161668e-02 2.692800e-14 0 
    0.360579 1.186104e-02 2.736800e-14 0 
    0.361410 1.167282e-02 2.681000e-14 0 
    0.362243 1.194583e-02 2.731100e-14 0 
    0.363078 1.159450e-02 2.638600e-14 0 
    0.363915 1.122821e-02 2.543500e-14 0 
    0.364754 1.089820e-02 2.457400e-14 0 
    0.365595 1.151835e-02 2.585300e-14 0 
    0.366437 1.154595e-02 2.579600e-14 0 
    0.367282 1.176204e-02 2.615800e-14 0 
    0.368129 1.195413e-02 2.646300e-14 0 
    0.368978 1.275177e-02 2.809900e-14 0 
    0.369828 1.220697e-02 2.677500e-14 0 
    0.370681 1.223632e-02 2.671600e-14 0 
    0.371535 1.260980e-02 2.740500e-14 0 
    0.372392 1.255293e-02 2.715600e-14 0 
    0.373045 1.156255e-02 2.492600e-14 1 
    0.373320 1.152851e-02 2.481600e-14 1 
    0.373595 1.096255e-02 2.356300e-14 1 
    0.373870 1.200280e-02 2.576100e-14 1 
    0.374145 1.248242e-02 2.675100e-14 1 
    0.374420 1.203721e-02 2.575900e-14 1 
    0.374695 1.213914e-02 2.593900e-14 1 
    0.374970 1.263829e-02 2.696600e-14 1 
    0.375245 1.194669e-02 2.545300e-14 1 
    0.375520 1.124033e-02 2.391300e-14 1 
    0.375795 1.224864e-02 2.602000e-14 1 
    0.376070 1.210016e-02 2.566700e-14 1 
    0.376345 1.133651e-02 2.401200e-14 1 
    0.376620 1.179232e-02 2.494100e-14 1 
    0.376895 1.223665e-02 2.584300e-14 1 
    0.377170 1.275051e-02 2.688900e-14 1 
    0.377445 1.288736e-02 2.713800e-14 1 
    0.377720 1.418829e-02 2.983400e-14 1 
    0.377995 1.658982e-02 3.483300e-14 1 
    0.378270 2.279347e-02 4.778900e-14 1 
    0.378545 2.873186e-02 6.015200e-14 1 
    0.378820 3.152844e-02 6.591100e-14 1 
    0.379095 2.814332e-02 5.874900e-14 1 
    0.379370 2.084704e-02 4.345500e-14 1 
    0.379645 1.719523e-02 3.579100e-14 1 
    0.379920 1.602406e-02 3.330500e-14 1 
    0.380195 1.501712e-02 3.116700e-14 1 
    0.380470 1.421132e-02 2.945200e-14 1 
    0.380745 1.383853e-02 2.863800e-14 1 
    0.381020 1.257371e-02 2.598300e-14 1 
    0.381295 1.256425e-02 2.592600e-14 1 
    0.381570 1.342440e-02 2.766100e-14 1 
    0.381845 1.469089e-02 3.022700e-14 1 
    0.382120 1.508342e-02 3.099000e-14 1 
    0.382395 1.482097e-02 3.040700e-14 1 
    0.382670 1.391877e-02 2.851500e-14 1 
    0.382945 1.368851e-02 2.800300e-14 1 
    0.383220 1.390692e-02 2.840900e-14 1 
    0.383495 1.476469e-02 3.011800e-14 1 
    0.383770 1.582272e-02 3.223000e-14 1 
    0.384045 1.711136e-02 3.480500e-14 1 
    0.384320 1.804178e-02 3.664500e-14 1 
    0.384595 1.810410e-02 3.671900e-14 1 
    0.384870 1.768266e-02 3.581300e-14 1 
    0.385145 1.654794e-02 3.346700e-14 1 
    0.385420 1.529555e-02 3.089000e-14 1 
    0.385695 1.431722e-02 2.887300e-14 1 
    0.385970 1.434162e-02 2.888100e-14 1 
    0.386245 1.471712e-02 2.959500e-14 1 
    0.386520 1.512951e-02 3.038100e-14 1 
    0.386795 1.665113e-02 3.338900e-14 1 
    0.387070 1.749285e-02 3.502700e-14 1 
    0.387345 1.768026e-02 3.535200e-14 1 
    0.387620 1.776748e-02 3.547600e-14 1 
    0.387895 1.806052e-02 3.601000e-14 1 
    0.388170 1.861149e-02 3.705600e-14 1 
    0.388445 1.680859e-02 3.341900e-14 1 
    0.388720 1.644859e-02 3.265700e-14 1 
    0.388995 1.600884e-02 3.173900e-14 1 
    0.389270 1.484045e-02 2.938100e-14 1 
    0.389545 1.432931e-02 2.832900e-14 1 
    0.389820 1.307410e-02 2.581100e-14 1 
    0.390095 1.393763e-02 2.747700e-14 1 
    0.390370 1.576614e-02 3.103800e-14 1 
    0.390645 1.650509e-02 3.244700e-14 1 
    0.390920 1.787721e-02 3.509500e-14 1 
    0.391195 1.987804e-02 3.896800e-14 1 
    0.391470 2.000918e-02 3.917000e-14 1 
    0.391745 2.069106e-02 4.044800e-14 1 
    0.392020 2.087175e-02 4.074400e-14 1 
    0.392295 1.972528e-02 3.845200e-14 1 
    0.392570 2.060056e-02 4.010200e-14 1 
    0.392845 2.103222e-02 4.088500e-14 1 
    0.393120 2.001233e-02 3.884800e-14 1 
    0.393395 1.988661e-02 3.855000e-14 1 
    0.393670 1.980181e-02 3.833200e-14 1 
    0.393945 1.841723e-02 3.560200e-14 1 
    0.394220 1.812592e-02 3.499000e-14 1 
    0.394495 1.821710e-02 3.511700e-14 1 
    0.394770 1.679004e-02 3.232100e-14 1 
    0.395045 1.605811e-02 3.086900e-14 1 
    0.395320 1.531784e-02 2.940500e-14 1 
    0.395595 1.515188e-02 2.904600e-14 1 
    0.395870 1.682889e-02 3.221600e-14 1 
    0.396145 1.808837e-02 3.457900e-14 1 
    0.396420 1.839008e-02 3.510700e-14 1 
    0.396695 1.941698e-02 3.701600e-14 1 
    0.396970 2.017983e-02 3.841700e-14 1 
    0.397245 2.053077e-02 3.903100e-14 1 
    0.397520 2.136407e-02 4.055900e-14 1 
    0.397795 2.124331e-02 4.027400e-14 1 
    0.398070 2.114275e-02 4.002800e-14 1 
    0.398345 2.021091e-02 3.821100e-14 1 
    0.398620 2.032410e-02 3.837200e-14 1 
    0.398895 1.973266e-02 3.720400e-14 1 
    0.399170 1.807303e-02 3.402800e-14 1 
    0.399445 1.754587e-02 3.299000e-14 1 
    0.399720 1.744329e-02 3.275200e-14 1 
    0.399995 1.695104e-02 3.178400e-14 1 
    0.400270 1.907212e-02 3.571200e-14 1 
    0.400545 1.998395e-02 3.736800e-14 1 
    0.400820 1.976345e-02 3.690500e-14 1 
    0.401095 2.021797e-02 3.770200e-14 1 
    0.401370 2.005185e-02 3.734100e-14 1 
    0.401645 2.002610e-02 3.724200e-14 1 
    0.401920 2.063023e-02 3.831300e-14 1 
    0.402195 1.932071e-02 3.583200e-14 1 
    0.402470 1.812202e-02 3.356300e-14 1 
    0.402745 1.701569e-02 3.147100e-14 1 
    0.403020 1.498426e-02 2.767600e-14 1 
    0.403295 1.471412e-02 2.714000e-14 1 
    0.403570 1.530098e-02 2.818400e-14 1 
    0.403845 1.567900e-02 2.884100e-14 1 
    0.404120 1.716800e-02 3.153700e-14 1 
    0.404395 1.879893e-02 3.448600e-14 1 
    0.404670 1.978413e-02 3.624400e-14 1 
    0.404945 2.111576e-02 3.863100e-14 1 
    0.405220 2.213350e-02 4.043800e-14 1 
    0.405495 2.274507e-02 4.149900e-14 1 
    0.405770 2.312554e-02 4.213600e-14 1 
    0.406045 2.299862e-02 4.184800e-14 1 
    0.406320 2.329228e-02 4.232500e-14 1 
    0.406595 2.324006e-02 4.217300e-14 1 
    0.406870 2.332614e-02 4.227200e-14 1 
    0.407145 2.249182e-02 4.070500e-14 1 
    0.407420 2.199326e-02 3.974900e-14 1 
    0.407695 2.349397e-02 4.240400e-14 1 
    0.407970 2.320833e-02 4.183200e-14 1 
    0.408245 2.405628e-02 4.330200e-14 1 
    0.408520 2.388621e-02 4.293800e-14 1 
    0.408795 2.370113e-02 4.254800e-14 1 
    0.409070 2.351605e-02 4.215900e-14 1 
    0.409345 2.278247e-02 4.078900e-14 1 
    0.409620 2.285784e-02 4.086900e-14 1 
    0.409895 2.347883e-02 4.192300e-14 1 
    0.410170 2.309198e-02 4.117700e-14 1 
    0.410445 2.340093e-02 4.167200e-14 1 
    0.410720 2.369377e-02 4.213700e-14 1 
    0.410995 2.396931e-02 4.257000e-14 1 
    0.411270 2.352780e-02 4.173000e-14 1 
    0.411545 2.348249e-02 4.159400e-14 1 
    0.411820 2.377110e-02 4.204900e-14 1 
    0.412095 2.366700e-02 4.180900e-14 1 
    0.412370 2.280584e-02 4.023400e-14 1 
    0.412645 2.305025e-02 4.061100e-14 1 
    0.412920 2.325944e-02 4.092500e-14 1 
    0.413195 2.332401e-02 4.098400e-14 1 
    0.413470 2.363145e-02 4.146900e-14 1 
    0.413745 2.378957e-02 4.169100e-14 1 
    0.414020 2.358123e-02 4.127100e-14 1 
    0.414295 2.331162e-02 4.074500e-14 1 
    0.414570 2.267115e-02 3.957300e-14 1 
    0.414845 2.249701e-02 3.921700e-14 1 
    0.415120 2.202079e-02 3.833600e-14 1 
    0.415395 2.200856e-02 3.826400e-14 1 
    0.415670 2.154989e-02 3.741700e-14 1 
    0.415945 2.079468e-02 3.605800e-14 1 
    0.416220 2.066165e-02 3.578000e-14 1 
    0.416495 2.015642e-02 3.485900e-14 1 
    0.416770 1.946683e-02 3.362200e-14 1 
    0.417045 1.893538e-02 3.266100e-14 1 
    0.417320 2.000878e-02 3.446700e-14 1 
    0.417595 2.086814e-02 3.590000e-14 1 
    0.417870 2.096315e-02 3.601600e-14 1 
    0.418145 2.152869e-02 3.693900e-14 1 
    0.418420 2.165332e-02 3.710400e-14 1 
    0.418695 2.188572e-02 3.745300e-14 1 
    0.418970 2.227024e-02 3.806100e-14 1 
    0.419245 2.256138e-02 3.850800e-14 1 
    0.419520 2.256634e-02 3.846600e-14 1 
    0.419795 2.298011e-02 3.912000e-14 1 
    0.420070 2.316904e-02 3.939000e-14 1 
    0.420345 2.387258e-02 4.053300e-14 1 
    0.420620 2.381182e-02 4.037700e-14 1 
    0.420895 2.390675e-02 4.048500e-14 1 
    0.421170 2.387650e-02 4.038100e-14 1 
    0.421445 2.376797e-02 4.014500e-14 1 
    0.421720 2.298208e-02 3.876700e-14 1 
    0.421995 2.366265e-02 3.986300e-14 1 
    0.422270 2.431997e-02 4.091700e-14 1 
    0.422545 2.425227e-02 4.075000e-14 1 
    0.422820 2.436608e-02 4.088800e-14 1 
    0.423095 2.378736e-02 3.986500e-14 1 
    0.423370 2.396826e-02 4.011600e-14 1 
    0.423645 2.384446e-02 3.985700e-14 1 
    0.423920 2.385926e-02 3.983000e-14 1 
    0.424195 2.313327e-02 3.856800e-14 1 
    0.424470 2.363833e-02 3.935900e-14 1 
    0.424745 2.399070e-02 3.989400e-14 1 
    0.425020 2.350936e-02 3.904300e-14 1 
    0.425295 2.334987e-02 3.872800e-14 1 
    0.425570 2.385639e-02 3.951700e-14 1 
    0.425845 2.382316e-02 3.941100e-14 1 
    0.426120 2.457662e-02 4.060500e-14 1 
    0.426395 2.415503e-02 3.985700e-14 1 
    0.426670 2.359272e-02 3.887900e-14 1 
    0.426945 2.365231e-02 3.892700e-14 1 
    0.427220 2.414273e-02 3.968300e-14 1 
    0.427495 2.419332e-02 3.971500e-14 1 
    0.427770 2.380968e-02 3.903500e-14 1 
    0.428045 2.437654e-02 3.991300e-14 1 
    0.428320 2.429351e-02 3.972600e-14 1 
    0.428595 2.427145e-02 3.963900e-14 1 
    0.428870 2.415546e-02 3.939900e-14 1 
    0.429145 2.369718e-02 3.860200e-14 1 
    0.429420 2.395069e-02 3.896500e-14 1 
    0.429695 2.374258e-02 3.857700e-14 1 
    0.429970 2.391779e-02 3.881200e-14 1 
    0.430245 2.472031e-02 4.006300e-14 1 
    0.430520 2.506886e-02 4.057600e-14 1 
    0.430795 2.448043e-02 3.957300e-14 1 
    0.431070 2.514659e-02 4.059800e-14 1 
    0.431345 2.484936e-02 4.006700e-14 1 
    0.431620 2.477548e-02 3.989700e-14 1 
    0.431895 2.489536e-02 4.003900e-14 1 
    0.432170 2.405921e-02 3.864500e-14 1 
    0.432445 2.503485e-02 4.016100e-14 1 
    0.432720 2.510353e-02 4.022000e-14 1 
    0.432995 2.490797e-02 3.985600e-14 1 
    0.433270 2.503097e-02 4.000200e-14 1 
    0.433545 2.453145e-02 3.915400e-14 1 
    0.433820 2.387816e-02 3.806300e-14 1 
    0.434095 2.424952e-02 3.860600e-14 1 
    0.434370 2.447962e-02 3.892300e-14 1 
    0.434645 2.504463e-02 3.977100e-14 1 
    0.434920 2.518352e-02 3.994100e-14 1 
    0.435195 2.493697e-02 3.950000e-14 1 
    0.435470 2.444321e-02 3.866900e-14 1 
    0.435745 2.415257e-02 3.816100e-14 1 
    0.436020 2.421412e-02 3.821000e-14 1 
    0.436295 2.415965e-02 3.807600e-14 1 
    0.436570 2.406623e-02 3.788100e-14 1 
    0.436845 2.356349e-02 3.704300e-14 1 
    0.437120 2.293397e-02 3.600800e-14 1 
    0.437395 2.315925e-02 3.631600e-14 1 
    0.437670 2.328479e-02 3.646700e-14 1 
    0.437945 2.361263e-02 3.693400e-14 1 
    0.438220 2.377863e-02 3.714700e-14 1 
    0.438495 2.463977e-02 3.844400e-14 1 
    0.438770 2.451924e-02 3.820800e-14 1 
    0.439045 2.450243e-02 3.813400e-14 1 
    0.439320 2.403262e-02 3.735600e-14 1 
    0.439595 2.363307e-02 3.668900e-14 1 
    0.439870 2.404253e-02 3.727800e-14 1 
    0.440145 2.369999e-02 3.670100e-14 1 
    0.440420 2.431799e-02 3.761100e-14 1 
    0.440695 2.513622e-02 3.882800e-14 1 
    0.440970 2.567383e-02 3.960900e-14 1 
    0.441245 2.427290e-02 3.740100e-14 1 
    0.441520 2.298732e-02 3.537600e-14 1 
    0.441795 2.231005e-02 3.429100e-14 1 
    0.442070 2.326350e-02 3.571200e-14 1 
    0.442345 2.366553e-02 3.628400e-14 1 
    0.442620 2.390589e-02 3.660700e-14 1 
    0.442895 2.476666e-02 3.787800e-14 1 
    0.443170 2.554178e-02 3.901500e-14 1 
    0.443445 2.543846e-02 3.880900e-14 1 
    0.443720 2.587560e-02 3.942700e-14 1 
    0.443995 2.635386e-02 4.010600e-14 1 
    0.444270 2.512989e-02 3.819600e-14 1 
    0.444545 2.522030e-02 3.828600e-14 1 
    0.444820 2.505233e-02 3.798400e-14 1 
    0.445095 2.526888e-02 3.826500e-14 1 
    0.445370 2.434272e-02 3.681700e-14 1 
    0.445645 2.491430e-02 3.763500e-14 1 
    0.445920 2.553762e-02 3.852900e-14 1 
    0.446195 2.540853e-02 3.828700e-14 1 
    0.446470 2.534086e-02 3.813800e-14 1 
    0.446745 2.519645e-02 3.787400e-14 1 
    0.447020 2.521749e-02 3.785900e-14 1 
    0.447295 2.563333e-02 3.843600e-14 1 
    0.447570 2.616499e-02 3.918500e-14 1 
    0.447845 2.497972e-02 3.736400e-14 1 
    0.448120 2.551378e-02 3.811600e-14 1 
    0.448395 2.626154e-02 3.918500e-14 1 
    0.448670 2.575225e-02 3.837800e-14 1 
    0.448945 2.609086e-02 3.883500e-14 1 
    0.449220 2.600310e-02 3.865700e-14 1 
    0.449495 2.669765e-02 3.964100e-14 1 
    0.449770 2.651793e-02 3.932600e-14 1 
    0.450045 2.642614e-02 3.914200e-14 1 
    0.450320 2.694446e-02 3.986100e-14 1 
    0.450595 2.631886e-02 3.888800e-14 1 
    0.450870 2.587532e-02 3.818600e-14 1 
    0.451145 2.644082e-02 3.897300e-14 1 
    0.451420 2.639902e-02 3.886400e-14 1 
    0.451695 2.679709e-02 3.940200e-14 1 
    0.451970 2.731455e-02 4.011400e-14 1 
    0.452245 2.732257e-02 4.007700e-14 1 
    0.452520 2.718380e-02 3.982500e-14 1 
    0.452795 2.716696e-02 3.975200e-14 1 
    0.453070 2.722392e-02 3.978700e-14 1 
    0.453345 2.726588e-02 3.980000e-14 1 
    0.453620 2.704381e-02 3.942800e-14 1 
    0.453895 2.715902e-02 3.954800e-14 1 
    0.454170 2.732052e-02 3.973500e-14 1 
    0.454445 2.728615e-02 3.963700e-14 1 
    0.454720 2.715928e-02 3.940500e-14 1 
    0.454995 2.694371e-02 3.904500e-14 1 
    0.455270 2.737840e-02 3.962700e-14 1 
    0.455545 2.741010e-02 3.962500e-14 1 
    0.455820 2.781096e-02 4.015600e-14 1 
    0.456095 2.759629e-02 3.979800e-14 1 
    0.456370 2.788228e-02 4.016200e-14 1 
    0.456645 2.749815e-02 3.956100e-14 1 
    0.456920 2.787785e-02 4.005900e-14 1 
    0.457195 2.838451e-02 4.073800e-14 1 
    0.457470 2.847029e-02 4.081200e-14 1 
    0.457745 2.852967e-02 4.084800e-14 1 
    0.458020 2.884297e-02 4.124700e-14 1 
    0.458295 2.881741e-02 4.116100e-14 1 
    0.458570 2.856952e-02 4.075800e-14 1 
    0.458845 2.859958e-02 4.075200e-14 1 
    0.459120 2.814976e-02 4.006300e-14 1 
    0.459395 2.777125e-02 3.947700e-14 1 
    0.459670 2.739741e-02 3.889900e-14 1 
    0.459945 2.785542e-02 3.950200e-14 1 
    0.460220 2.791698e-02 3.954200e-14 1 
    0.460495 2.768740e-02 3.917000e-14 1 
    0.460770 2.750180e-02 3.886100e-14 1 
    0.461045 2.826869e-02 3.989700e-14 1 
    0.461320 2.876352e-02 4.054700e-14 1 
    0.461595 2.801586e-02 3.944600e-14 1 
    0.461870 2.812392e-02 3.955100e-14 1 
    0.462145 2.854257e-02 4.009200e-14 1 
    0.462420 2.801060e-02 3.929800e-14 1 
    0.462695 2.726822e-02 3.821100e-14 1 
    0.462970 2.812872e-02 3.937000e-14 1 
    0.463245 2.851265e-02 3.986000e-14 1 
    0.463520 2.879001e-02 4.020000e-14 1 
    0.463795 2.892456e-02 4.034000e-14 1 
    0.464070 2.896749e-02 4.035200e-14 1 
    0.464345 2.884299e-02 4.013100e-14 1 
    0.464620 2.911462e-02 4.046100e-14 1 
    0.464895 2.896107e-02 4.020000e-14 1 
    0.465170 2.887489e-02 4.003300e-14 1 
    0.465445 2.845265e-02 3.940100e-14 1 
    0.465720 2.842483e-02 3.931600e-14 1 
    0.465995 2.845117e-02 3.930600e-14 1 
    0.466270 2.889059e-02 3.986600e-14 1 
    0.466545 2.862358e-02 3.945100e-14 1 
    0.466820 2.880043e-02 3.964800e-14 1 
    0.467095 2.880892e-02 3.961300e-14 1 
    0.467370 2.918506e-02 4.008300e-14 1 
    0.467645 2.909476e-02 3.991200e-14 1 
    0.467920 2.933918e-02 4.020000e-14 1 
    0.468195 2.981502e-02 4.080400e-14 1 
    0.468470 2.997807e-02 4.097900e-14 1 
    0.468745 2.970054e-02 4.055200e-14 1 
    0.469020 3.001551e-02 4.093400e-14 1 
    0.469295 3.000079e-02 4.086600e-14 1 
    0.469570 3.010579e-02 4.096100e-14 1 
    0.469845 3.015872e-02 4.098500e-14 1 
    0.470120 2.985662e-02 4.052700e-14 1 
    0.470395 2.995721e-02 4.061600e-14 1 
    0.470670 3.019679e-02 4.089300e-14 1 
    0.470945 2.957189e-02 4.000000e-14 1 
    0.471220 2.925560e-02 3.952600e-14 1 
    0.471495 2.934756e-02 3.960400e-14 1 
    0.471770 2.933952e-02 3.954700e-14 1 
    0.472045 2.826331e-02 3.805200e-14 1 
    0.472320 2.867029e-02 3.855500e-14 1 
    0.472595 2.893522e-02 3.886600e-14 1 
    0.472870 2.892568e-02 3.880800e-14 1 
    0.473145 2.972794e-02 3.983800e-14 1 
    0.473420 2.972665e-02 3.979000e-14 1 
    0.473695 2.924660e-02 3.910200e-14 1 
    0.473970 2.931950e-02 3.915400e-14 1 
    0.474245 2.936178e-02 3.916500e-14 1 
    0.474520 2.883592e-02 3.841900e-14 1 
    0.474795 2.884832e-02 3.839100e-14 1 
    0.475070 2.938127e-02 3.905500e-14 1 
    0.475345 2.945673e-02 3.911000e-14 1 
    0.475620 2.973136e-02 3.942900e-14 1 
    0.475895 2.992579e-02 3.964100e-14 1 
    0.476170 2.952354e-02 3.906300e-14 1 
    0.476445 2.990874e-02 3.952700e-14 1 
    0.476720 3.022509e-02 3.989900e-14 1 
    0.476995 2.963427e-02 3.907400e-14 1 
    0.477270 2.975274e-02 3.918500e-14 1 
    0.477545 2.938643e-02 3.865800e-14 1 
    0.477820 2.885863e-02 3.792000e-14 1 
    0.478095 2.849490e-02 3.739900e-14 1 
    0.478370 2.879238e-02 3.774600e-14 1 
    0.478645 2.928981e-02 3.835400e-14 1 
    0.478920 2.967822e-02 3.881800e-14 1 
    0.479195 2.948881e-02 3.852600e-14 1 
    0.479470 2.987670e-02 3.898800e-14 1 
    0.479745 2.991328e-02 3.899100e-14 1 
    0.480020 2.959351e-02 3.853000e-14 1 
    0.480295 2.930139e-02 3.810600e-14 1 
    0.480570 2.898084e-02 3.764600e-14 1 
    0.480845 2.920053e-02 3.788800e-14 1 
    0.481120 2.910817e-02 3.772500e-14 1 
    0.481395 2.909897e-02 3.767000e-14 1 
    0.481670 2.966815e-02 3.836300e-14 1 
    0.481945 2.975856e-02 3.843600e-14 1 
    0.482220 2.937629e-02 3.789900e-14 1 
    0.482495 2.945326e-02 3.795500e-14 1 
    0.482770 2.962902e-02 3.813800e-14 1 
    0.483045 2.987511e-02 3.841100e-14 1 
    0.483320 2.995197e-02 3.846600e-14 1 
    0.483595 2.925406e-02 3.752700e-14 1 
    0.483870 2.861305e-02 3.666300e-14 1 
    0.484145 2.857604e-02 3.657400e-14 1 
    0.484420 2.904655e-02 3.713400e-14 1 
    0.484695 2.966922e-02 3.788700e-14 1 
    0.484970 2.975699e-02 3.795600e-14 1 
    0.485245 2.964083e-02 3.776500e-14 1 
    0.485520 3.018047e-02 3.840900e-14 1 
    0.485795 3.036807e-02 3.860400e-14 1 
    0.486070 2.993938e-02 3.801600e-14 1 
    0.486345 2.996144e-02 3.800100e-14 1 
    0.486620 2.993850e-02 3.792900e-14 1 
    0.486895 3.036430e-02 3.842500e-14 1 
    0.487170 3.057186e-02 3.864400e-14 1 
    0.487445 3.024127e-02 3.818300e-14 1 
    0.487720 3.022783e-02 3.812300e-14 1 
    0.487995 2.990710e-02 3.767600e-14 1 
    0.488270 2.995115e-02 3.768900e-14 1 
    0.488545 3.049169e-02 3.832600e-14 1 
    0.488820 3.023292e-02 3.795800e-14 1 
    0.489095 3.026535e-02 3.795600e-14 1 
    0.489370 3.024191e-02 3.788400e-14 1 
    0.489645 3.011528e-02 3.768300e-14 1 
    0.489920 2.979708e-02 3.724300e-14 1 
    0.490195 2.912810e-02 3.636600e-14 1 
    0.490470 2.896513e-02 3.612200e-14 1 
    0.490745 2.946082e-02 3.669900e-14 1 
    0.491020 2.925837e-02 3.640600e-14 1 
    0.491295 2.909484e-02 3.616200e-14 1 
    0.491570 2.983704e-02 3.704300e-14 1 
    0.491845 2.993978e-02 3.712900e-14 1 
    0.492120 2.915550e-02 3.611600e-14 1 
    0.492395 2.891169e-02 3.577400e-14 1 
    0.492670 2.909853e-02 3.596500e-14 1 
    0.492945 3.086439e-02 3.810500e-14 1 
    0.493220 3.381722e-02 4.170400e-14 1 
    0.493495 4.008462e-02 4.937800e-14 1 
    0.493770 4.519565e-02 5.561200e-14 1 
    0.494045 4.454713e-02 5.475300e-14 1 
    0.494320 3.791696e-02 4.655200e-14 1 
    0.494595 3.203680e-02 3.928900e-14 1 
    0.494870 2.867083e-02 3.512200e-14 1 
    0.495145 2.761988e-02 3.379700e-14 1 
    0.495420 2.796064e-02 3.417600e-14 1 
    0.495695 2.808178e-02 3.428600e-14 1 
    0.495970 2.879843e-02 3.512200e-14 1 
    0.496245 2.863993e-02 3.489000e-14 1 
    0.496520 2.820081e-02 3.431700e-14 1 
    0.496795 2.887211e-02 3.509500e-14 1 
    0.497070 2.928952e-02 3.556300e-14 1 
    0.497345 2.987683e-02 3.623600e-14 1 
    0.497620 3.031681e-02 3.672900e-14 1 
    0.497895 3.056683e-02 3.699100e-14 1 
    0.498170 3.049389e-02 3.686200e-14 1 
    0.498445 3.035945e-02 3.665900e-14 1 
    0.498720 2.986981e-02 3.602800e-14 1 
    0.498995 2.991355e-02 3.604100e-14 1 
    0.499270 3.004790e-02 3.616300e-14 1 
    0.499545 2.985892e-02 3.589600e-14 1 
    0.499820 2.891334e-02 3.472100e-14 1 
    0.500095 2.894183e-02 3.471700e-14 1 
    0.500370 2.947608e-02 3.531900e-14 1 
    0.500645 3.056788e-02 3.658700e-14 1 
    0.500920 3.052452e-02 3.649500e-14 1 
    0.501195 3.053377e-02 3.646600e-14 1 
    0.501470 3.062931e-02 3.654000e-14 1 
    0.501745 3.058991e-02 3.645300e-14 1 
    0.502020 3.079734e-02 3.666000e-14 1 
    0.502295 3.085633e-02 3.669000e-14 1 
    0.502570 3.179603e-02 3.776600e-14 1 
    0.502845 3.244695e-02 3.849700e-14 1 
    0.503120 3.373291e-02 3.997900e-14 1 
    0.503395 3.476062e-02 4.115200e-14 1 
    0.503670 3.549708e-02 4.197800e-14 1 
    0.503945 3.577458e-02 4.226000e-14 1 
    0.504220 3.464584e-02 4.088200e-14 1 
    0.504495 3.238536e-02 3.817300e-14 1 
    0.504770 3.145672e-02 3.703800e-14 1 
    0.505045 3.121042e-02 3.670800e-14 1 
    0.505320 3.095758e-02 3.637100e-14 1 
    0.505595 3.100321e-02 3.638500e-14 1 
    0.505870 3.068124e-02 3.596800e-14 1 
    0.506145 3.017748e-02 3.533900e-14 1 
    0.506420 3.035817e-02 3.551200e-14 1 
    0.506695 3.054776e-02 3.569500e-14 1 
    0.506970 3.093304e-02 3.610600e-14 1 
    0.507245 3.114844e-02 3.631800e-14 1 
    0.507520 3.225632e-02 3.756900e-14 1 
    0.507795 3.357111e-02 3.905800e-14 1 
    0.508070 3.805514e-02 4.422700e-14 1 
    0.508345 4.317679e-02 5.012500e-14 1 
    0.508620 4.752129e-02 5.510900e-14 1 
    0.508895 4.592475e-02 5.320000e-14 1 
    0.509170 4.049895e-02 4.686400e-14 1 
    0.509445 3.542123e-02 4.094400e-14 1 
    0.509720 3.201174e-02 3.696300e-14 1 
    0.509995 3.115417e-02 3.593400e-14 1 
    0.510270 3.123638e-02 3.599000e-14 1 
    0.510545 3.110497e-02 3.580000e-14 1 
    0.510820 3.070882e-02 3.530600e-14 1 
    0.511095 3.090994e-02 3.549900e-14 1 
    0.511370 3.106176e-02 3.563500e-14 1 
    0.511645 3.113008e-02 3.567500e-14 1 
    0.511920 3.043851e-02 3.484500e-14 1 
    0.512195 3.034268e-02 3.469800e-14 1 
    0.512470 3.056874e-02 3.491900e-14 1 
    0.512745 3.075228e-02 3.509100e-14 1 
    0.513020 3.094056e-02 3.526800e-14 1 
    0.513295 3.125741e-02 3.559100e-14 1 
    0.513570 3.187381e-02 3.625400e-14 1 
    0.513845 3.191411e-02 3.626100e-14 1 
    0.514120 3.235005e-02 3.671700e-14 1 
    0.514395 3.240054e-02 3.673500e-14 1 
    0.514670 3.221004e-02 3.648000e-14 1 
    0.514945 3.130313e-02 3.541500e-14 1 
    0.515220 3.152416e-02 3.562700e-14 1 
    0.515495 3.106621e-02 3.507200e-14 1 
    0.515770 3.105946e-02 3.502700e-14 1 
    0.516045 3.107395e-02 3.500600e-14 1 
    0.516320 3.113285e-02 3.503500e-14 1 
    0.516595 3.109930e-02 3.496000e-14 1 
    0.516870 3.130874e-02 3.515800e-14 1 
    0.517145 3.174857e-02 3.561400e-14 1 
    0.517420 3.180376e-02 3.563800e-14 1 
    0.517695 3.150614e-02 3.526700e-14 1 
    0.517970 3.111661e-02 3.479400e-14 1 
    0.518245 3.155790e-02 3.525000e-14 1 
    0.518520 3.110386e-02 3.470600e-14 1 
    0.518795 3.136654e-02 3.496200e-14 1 
    0.519070 3.151925e-02 3.509500e-14 1 
    0.519345 3.174326e-02 3.530700e-14 1 
    0.519620 3.214769e-02 3.571900e-14 1 
    0.519895 3.203937e-02 3.556100e-14 1 
    0.520170 3.206606e-02 3.555300e-14 1 
    0.520445 3.138670e-02 3.476300e-14 1 
    0.520720 3.135390e-02 3.469000e-14 1 
    0.520995 3.134903e-02 3.464800e-14 1 
    0.521270 3.129971e-02 3.455700e-14 1 
    0.521545 3.105076e-02 3.424600e-14 1 
    0.521820 3.123418e-02 3.441200e-14 1 
    0.522095 3.108630e-02 3.421300e-14 1 
    0.522370 3.070702e-02 3.376000e-14 1 
    0.522645 3.122467e-02 3.429300e-14 1 
    0.522920 3.084555e-02 3.384100e-14 1 
    0.523195 3.077489e-02 3.372800e-14 1 
    0.523470 3.150509e-02 3.449200e-14 1 
    0.523745 3.214077e-02 3.515100e-14 1 
    0.524020 3.232098e-02 3.531100e-14 1 
    0.524295 3.201589e-02 3.494100e-14 1 
    0.524570 3.099832e-02 3.379500e-14 1 
    0.524845 3.050561e-02 3.322300e-14 1 
    0.525120 3.027930e-02 3.294200e-14 1 
    0.525395 2.935593e-02 3.190400e-14 1 
    0.525670 2.943733e-02 3.195900e-14 1 
    0.525945 3.001952e-02 3.255700e-14 1 
    0.526220 3.056874e-02 3.311800e-14 1 
    0.526495 3.069218e-02 3.321700e-14 1 
    0.526770 3.029784e-02 3.275600e-14 1 
    0.527045 3.041467e-02 3.284800e-14 1 
    0.527320 3.155497e-02 3.404400e-14 1 
    0.527595 3.170109e-02 3.416600e-14 1 
    0.527870 3.226637e-02 3.473900e-14 1 
    0.528145 3.329394e-02 3.580800e-14 1 
    0.528420 3.337330e-02 3.585600e-14 1 
    0.528695 3.262912e-02 3.502000e-14 1 
    0.528970 3.201578e-02 3.432600e-14 1 
    0.529245 3.241787e-02 3.472100e-14 1 
    0.529520 3.212912e-02 3.437600e-14 1 
    0.529795 3.197070e-02 3.417100e-14 1 
    0.530070 3.277845e-02 3.499800e-14 1 
    0.530345 3.250589e-02 3.467100e-14 1 
    0.530620 3.220081e-02 3.431000e-14 1 
    0.530895 3.222010e-02 3.429500e-14 1 
    0.531170 3.243782e-02 3.449100e-14 1 
    0.531445 3.257780e-02 3.460400e-14 1 
    0.531720 3.250503e-02 3.449100e-14 1 
    0.531995 3.276885e-02 3.473500e-14 1 
    0.532270 3.356767e-02 3.554500e-14 1 
    0.532545 3.316373e-02 3.508100e-14 1 
    0.532820 3.347148e-02 3.537000e-14 1 
    0.533095 3.311764e-02 3.496000e-14 1 
    0.533370 3.291665e-02 3.471200e-14 1 
    0.533645 3.307305e-02 3.484100e-14 1 
    0.533920 3.323828e-02 3.497900e-14 1 
    0.534195 3.333246e-02 3.504200e-14 1 
    0.534470 3.288878e-02 3.454000e-14 1 
    0.534745 3.213436e-02 3.371300e-14 1 
    0.535020 3.146707e-02 3.297900e-14 1 
    0.535295 3.209543e-02 3.360300e-14 1 
    0.535570 3.188269e-02 3.334600e-14 1 
    0.535845 3.304291e-02 3.452400e-14 1 
    0.536120 3.339588e-02 3.485700e-14 1 
    0.536395 3.353852e-02 3.497000e-14 1 
    0.536670 3.377452e-02 3.518000e-14 1 
    0.536945 3.419644e-02 3.558300e-14 1 
    0.537220 3.458550e-02 3.595100e-14 1 
    0.537495 3.460937e-02 3.593900e-14 1 
    0.537770 3.451080e-02 3.580000e-14 1 
    0.538045 3.438688e-02 3.563500e-14 1 
    0.538320 3.394872e-02 3.514500e-14 1 
    0.538595 3.439630e-02 3.557200e-14 1 
    0.538870 3.445950e-02 3.560100e-14 1 
    0.539145 3.470881e-02 3.582200e-14 1 
    0.539420 3.482958e-02 3.591000e-14 1 
    0.539695 3.573503e-02 3.680600e-14 1 
    0.539970 3.538854e-02 3.641200e-14 1 
    0.540245 3.519401e-02 3.617500e-14 1 
    0.540520 3.428130e-02 3.520100e-14 1 
    0.540795 3.387361e-02 3.474700e-14 1 
    0.541070 3.369533e-02 3.452900e-14 1 
    0.541345 3.364655e-02 3.444400e-14 1 
    0.541620 3.399072e-02 3.476100e-14 1 
    0.541895 3.417012e-02 3.490900e-14 1 
    0.542170 3.431455e-02 3.502100e-14 1 
    0.542445 3.435329e-02 3.502500e-14 1 
    0.542720 3.487118e-02 3.551700e-14 1 
    0.542995 3.485150e-02 3.546100e-14 1 
    0.543270 3.473923e-02 3.531100e-14 1 
    0.543545 3.486403e-02 3.540200e-14 1 
    0.543820 3.546320e-02 3.597400e-14 1 
    0.544095 3.621845e-02 3.670300e-14 1 
    0.544370 3.609899e-02 3.654500e-14 1 
    0.544645 3.588926e-02 3.629600e-14 1 
    0.544920 3.532867e-02 3.569300e-14 1 
    0.545195 3.469555e-02 3.501800e-14 1 
    0.545470 3.451336e-02 3.479900e-14 1 
    0.545745 3.490161e-02 3.515500e-14 1 
    0.546020 3.457803e-02 3.479400e-14 1 
    0.546295 3.487450e-02 3.505700e-14 1 
    0.546570 3.526412e-02 3.541300e-14 1 
    0.546845 3.460784e-02 3.471900e-14 1 
    0.547120 3.515054e-02 3.522800e-14 1 
    0.547395 3.500709e-02 3.504900e-14 1 
    0.547670 3.510926e-02 3.511600e-14 1 
    0.547945 3.508148e-02 3.505300e-14 1 
    0.548220 3.453064e-02 3.446800e-14 1 
    0.548495 3.423837e-02 3.414200e-14 1 
    0.548770 3.485594e-02 3.472300e-14 1 
    0.549045 3.454823e-02 3.438200e-14 1 
    0.549320 3.458285e-02 3.438200e-14 1 
    0.549595 3.441611e-02 3.418200e-14 1 
    0.549870 3.489503e-02 3.462300e-14 1 
    0.550145 3.570172e-02 3.538800e-14 1 
    0.550420 3.525066e-02 3.490600e-14 1 
    0.550695 3.515852e-02 3.478000e-14 1 
    0.550970 3.572286e-02 3.530300e-14 1 
    0.551245 3.513763e-02 3.469000e-14 1 
    0.551520 3.481782e-02 3.434000e-14 1 
    0.551795 3.491751e-02 3.440400e-14 1 
    0.552070 3.481822e-02 3.427200e-14 1 
    0.552345 3.519257e-02 3.460600e-14 1 
    0.552620 3.545158e-02 3.482600e-14 1 
    0.552895 3.576913e-02 3.510300e-14 1 
    0.553170 3.561296e-02 3.491500e-14 1 
    0.553445 3.564940e-02 3.491600e-14 1 
    0.553720 3.573593e-02 3.496600e-14 1 
    0.553995 3.522923e-02 3.443600e-14 1 
    0.554270 3.551511e-02 3.468100e-14 1 
    0.554545 3.487894e-02 3.402600e-14 1 
    0.554820 3.535681e-02 3.445800e-14 1 
    0.555095 3.541344e-02 3.447900e-14 1 
    0.555370 3.521721e-02 3.425400e-14 1 
    0.555645 3.476840e-02 3.378400e-14 1 
    0.555920 3.539619e-02 3.436000e-14 1 
    0.556195 3.517446e-02 3.411100e-14 1 
    0.556470 3.473960e-02 3.365600e-14 1 
    0.556745 3.455697e-02 3.344600e-14 1 
    0.557020 3.483933e-02 3.368600e-14 1 
    0.557295 3.508597e-02 3.389100e-14 1 
    0.557570 3.584600e-02 3.459100e-14 1 
    0.557845 3.496854e-02 3.371100e-14 1 
    0.558120 3.613169e-02 3.479800e-14 1 
    0.558395 3.587524e-02 3.451700e-14 1 
    0.558670 3.581800e-02 3.442800e-14 1 
    0.558945 3.530341e-02 3.390000e-14 1 
    0.559220 3.571864e-02 3.426500e-14 1 
    0.559495 3.564109e-02 3.415700e-14 1 
    0.559770 3.502229e-02 3.353100e-14 1 
    0.560045 3.529508e-02 3.375900e-14 1 
    0.560320 3.601418e-02 3.441300e-14 1 
    0.560595 3.547234e-02 3.386200e-14 1 
    0.560870 3.700243e-02 3.528800e-14 1 
    0.561145 3.608253e-02 3.437700e-14 1 
    0.561420 3.651294e-02 3.475300e-14 1 
    0.561695 3.614593e-02 3.437000e-14 1 
    0.561970 3.574868e-02 3.395900e-14 1 
    0.562245 3.694172e-02 3.505800e-14 1 
    0.562520 3.692829e-02 3.501100e-14 1 
    0.562795 3.704359e-02 3.508600e-14 1 
    0.563070 3.711468e-02 3.511900e-14 1 
    0.563345 3.702294e-02 3.499800e-14 1 
    0.563620 3.737041e-02 3.529200e-14 1 
    0.563895 3.737403e-02 3.526100e-14 1 
    0.564170 3.747096e-02 3.531800e-14 1 
    0.564445 3.729510e-02 3.511800e-14 1 
    0.564720 3.734846e-02 3.513400e-14 1 
    0.564995 3.764767e-02 3.538100e-14 1 
    0.565270 3.665331e-02 3.441300e-14 1 
    0.565545 3.608022e-02 3.384200e-14 1 
    0.565820 3.687087e-02 3.455000e-14 1 
    0.566095 3.678174e-02 3.443300e-14 1 
    0.566370 3.727192e-02 3.485800e-14 1 
    0.566645 3.779510e-02 3.531300e-14 1 
    0.566920 3.764217e-02 3.513600e-14 1 
    0.567195 3.738165e-02 3.485900e-14 1 
    0.567470 3.675884e-02 3.424500e-14 1 
    0.567745 3.633139e-02 3.381400e-14 1 
    0.568020 3.634615e-02 3.379500e-14 1 
    0.568295 3.690993e-02 3.428600e-14 1 
    0.568570 3.762561e-02 3.491700e-14 1 
    0.568845 3.657585e-02 3.391000e-14 1 
    0.569120 3.684659e-02 3.412800e-14 1 
    0.569395 3.675685e-02 3.401200e-14 1 
    0.569670 3.701844e-02 3.422100e-14 1 
    0.569945 3.693292e-02 3.410900e-14 1 
    0.570220 3.670195e-02 3.386300e-14 1 
    0.570495 3.735466e-02 3.443200e-14 1 
    0.570770 3.663161e-02 3.373300e-14 1 
    0.571045 3.737997e-02 3.438900e-14 1 
    0.571320 3.639107e-02 3.344700e-14 1 
    0.571595 3.630631e-02 3.333700e-14 1 
    0.571870 3.719373e-02 3.411900e-14 1 
    0.572145 3.801187e-02 3.483600e-14 1 
    0.572420 3.731445e-02 3.416400e-14 1 
    0.572695 3.675011e-02 3.361500e-14 1 
    0.572970 3.784799e-02 3.458600e-14 1 
    0.573245 3.779780e-02 3.450700e-14 1 
    0.573520 3.763453e-02 3.432500e-14 1 
    0.573795 3.753234e-02 3.419900e-14 1 
    0.574070 3.767598e-02 3.429700e-14 1 
    0.574345 3.779016e-02 3.436800e-14 1 
    0.574620 3.776032e-02 3.430800e-14 1 
    0.574895 3.791105e-02 3.441200e-14 1 
    0.575170 3.989585e-02 3.617900e-14 1 
    0.575445 3.876179e-02 3.511700e-14 1 
    0.575720 3.851490e-02 3.486000e-14 1 
    0.575995 3.747234e-02 3.388400e-14 1 
    0.576270 3.866158e-02 3.492600e-14 1 
    0.576545 3.887245e-02 3.508300e-14 1 
    0.576820 3.836609e-02 3.459300e-14 1 
    0.577095 3.714713e-02 3.346200e-14 1 
    0.577370 3.827373e-02 3.444400e-14 1 
    0.577645 3.850484e-02 3.461900e-14 1 
    0.577920 3.680142e-02 3.305600e-14 1 
    0.578195 3.834864e-02 3.441300e-14 1 
    0.578470 3.800812e-02 3.407500e-14 1 
    0.578745 3.811683e-02 3.414000e-14 1 
    0.579020 3.785021e-02 3.386900e-14 1 
    0.579295 3.819714e-02 3.414700e-14 1 
    0.579570 3.770493e-02 3.367500e-14 1 
    0.579845 3.687664e-02 3.290400e-14 1 
    0.580120 3.742092e-02 3.335800e-14 1 
    0.580395 3.778990e-02 3.365500e-14 1 
    0.580670 3.860235e-02 3.434600e-14 1 
    0.580945 3.861867e-02 3.432800e-14 1 
    0.581220 3.920475e-02 3.481600e-14 1 
    0.581495 3.874255e-02 3.437300e-14 1 
    0.581770 3.930719e-02 3.484100e-14 1 
    0.582045 3.842176e-02 3.402400e-14 1 
    0.582320 3.855076e-02 3.410600e-14 1 
    0.582595 3.867996e-02 3.418800e-14 1 
    0.582870 3.891240e-02 3.436100e-14 1 
    0.583145 3.893099e-02 3.434500e-14 1 
    0.583420 3.968251e-02 3.497500e-14 1 
    0.583695 3.942579e-02 3.471600e-14 1 
    0.583970 3.968347e-02 3.491000e-14 1 
    0.584245 3.919292e-02 3.444600e-14 1 
    0.584520 3.955895e-02 3.473500e-14 1 
    0.584795 3.949131e-02 3.464300e-14 1 
    0.585070 3.909488e-02 3.426300e-14 1 
    0.585345 3.889408e-02 3.405500e-14 1 
    0.585620 3.953651e-02 3.458500e-14 1 
    0.585895 4.011717e-02 3.506000e-14 1 
    0.586170 3.894080e-02 3.400000e-14 1 
    0.586445 3.915962e-02 3.415900e-14 1 
    0.586720 3.911718e-02 3.409000e-14 1 
    0.586995 3.922507e-02 3.415200e-14 1 
    0.587270 3.787539e-02 3.294600e-14 1 
    0.587545 3.808577e-02 3.309800e-14 1 
    0.587820 3.827807e-02 3.323400e-14 1 
    0.588095 3.829084e-02 3.321400e-14 1 
    0.588370 3.841782e-02 3.329300e-14 1 
    0.588645 3.864779e-02 3.346100e-14 1 
    0.588920 3.918102e-02 3.389100e-14 1 
    0.589195 3.876980e-02 3.350400e-14 1 
    0.589470 3.956813e-02 3.416200e-14 1 
    0.589745 4.037253e-02 3.482400e-14 1 
    0.590020 3.963967e-02 3.416000e-14 1 
    0.590295 4.055937e-02 3.492000e-14 1 
    0.590570 4.020538e-02 3.458300e-14 1 
    0.590845 3.979715e-02 3.420000e-14 1 
    0.591120 4.007298e-02 3.440500e-14 1 
    0.591395 4.028282e-02 3.455300e-14 1 
    0.591670 4.025728e-02 3.449900e-14 1 
    0.591945 4.054115e-02 3.471000e-14 1 
    0.592220 4.027604e-02 3.445100e-14 1 
    0.592495 4.018590e-02 3.434200e-14 1 
    0.592770 4.025367e-02 3.436800e-14 1 
    0.593045 4.008821e-02 3.419500e-14 1 
    0.593320 3.950818e-02 3.366900e-14 1 
    0.593595 4.001109e-02 3.406600e-14 1 
    0.593870 3.958734e-02 3.367400e-14 1 
    0.594145 3.966637e-02 3.371000e-14 1 
    0.594420 3.937802e-02 3.343400e-14 1 
    0.594695 3.913272e-02 3.319500e-14 1 
    0.594970 3.958427e-02 3.354700e-14 1 
    0.595245 3.916380e-02 3.316000e-14 1 
    0.595520 3.884062e-02 3.285600e-14 1 
    0.595795 3.954385e-02 3.342000e-14 1 
    0.596070 4.050769e-02 3.420300e-14 1 
    0.596345 4.160722e-02 3.509900e-14 1 
    0.596620 4.157203e-02 3.503700e-14 1 
    0.596895 4.147379e-02 3.492200e-14 1 
    0.597170 4.163445e-02 3.502500e-14 1 
    0.597445 4.063887e-02 3.415600e-14 1 
    0.597720 3.765379e-02 3.161800e-14 1 
    0.597995 3.604231e-02 3.023700e-14 1 
    0.598270 3.637970e-02 3.049200e-14 1 
    0.598545 3.665558e-02 3.069500e-14 1 
    0.598820 3.713869e-02 3.107100e-14 1 
    0.599095 3.745755e-02 3.130900e-14 1 
    0.599370 3.812781e-02 3.184000e-14 1 
    0.599645 3.888554e-02 3.244300e-14 1 
    0.599920 3.941429e-02 3.285400e-14 1 
    0.600195 3.963175e-02 3.300500e-14 1 
    0.600470 3.946375e-02 3.283500e-14 1 
    0.600745 3.922322e-02 3.260500e-14 1 
    0.601020 3.936390e-02 3.269200e-14 1 
    0.601295 3.921433e-02 3.253800e-14 1 
    0.601570 3.946734e-02 3.271800e-14 1 
    0.601845 4.016629e-02 3.326700e-14 1 
    0.602120 3.958909e-02 3.275900e-14 1 
    0.602395 3.961921e-02 3.275400e-14 1 
    0.602670 3.919290e-02 3.237200e-14 1 
    0.602945 3.972067e-02 3.277800e-14 1 
    0.603220 3.958226e-02 3.263400e-14 1 
    0.603495 4.002748e-02 3.297100e-14 1 
    0.603770 4.033130e-02 3.319100e-14 1 
    0.604045 3.973804e-02 3.267300e-14 1 
    0.604320 3.999822e-02 3.285700e-14 1 
    0.604595 4.021008e-02 3.300100e-14 1 
    0.604870 4.013325e-02 3.290800e-14 1 
    0.605145 4.101446e-02 3.360000e-14 1 
    0.605420 4.031745e-02 3.299900e-14 1 
    0.605695 4.012051e-02 3.280800e-14 1 
    0.605970 4.042134e-02 3.302400e-14 1 
    0.606245 4.134869e-02 3.375100e-14 1 
    0.606520 4.077310e-02 3.325100e-14 1 
    0.606795 4.064562e-02 3.311700e-14 1 
    0.607070 4.062596e-02 3.307100e-14 1 
    0.607345 4.101812e-02 3.336000e-14 1 
    0.607620 4.138632e-02 3.362900e-14 1 
    0.607895 4.039895e-02 3.279700e-14 1 
    0.608170 4.078935e-02 3.308400e-14 1 
    0.608445 3.994886e-02 3.237300e-14 1 
    0.608720 4.040245e-02 3.271100e-14 1 
    0.608995 4.136492e-02 3.346000e-14 1 
    0.609270 4.049405e-02 3.272600e-14 1 
    0.609545 3.980735e-02 3.214200e-14 1 
    0.609820 4.048787e-02 3.266200e-14 1 
    0.610095 3.986432e-02 3.213000e-14 1 
    0.610370 3.963452e-02 3.191600e-14 1 
    0.610645 4.086224e-02 3.287500e-14 1 
    0.610920 4.013021e-02 3.225700e-14 1 
    0.611195 4.053368e-02 3.255200e-14 1 
    0.611470 4.027105e-02 3.231200e-14 1 
    0.611745 4.026861e-02 3.228100e-14 1 
    0.612020 4.064693e-02 3.255500e-14 1 
    0.612295 4.077719e-02 3.263000e-14 1 
    0.612570 4.149552e-02 3.317500e-14 1 
    0.612845 4.093936e-02 3.270100e-14 1 
    0.613120 4.197229e-02 3.349600e-14 1 
    0.613395 4.217425e-02 3.362700e-14 1 
    0.613670 4.138734e-02 3.297000e-14 1 
    0.613945 4.148726e-02 3.302000e-14 1 
    0.614220 4.130185e-02 3.284300e-14 1 
    0.614495 4.167113e-02 3.310700e-14 1 
    0.614770 4.152703e-02 3.296300e-14 1 
    0.615045 4.028812e-02 3.195100e-14 1 
    0.615320 4.061696e-02 3.218300e-14 1 
    0.615595 4.163224e-02 3.295800e-14 1 
    0.615870 4.182496e-02 3.308100e-14 1 
    0.616145 4.175475e-02 3.299600e-14 1 
    0.616420 4.212261e-02 3.325700e-14 1 
    0.616695 4.130577e-02 3.258300e-14 1 
    0.616970 4.223842e-02 3.328900e-14 1 
    0.617245 4.194970e-02 3.303200e-14 1 
    0.617520 4.154601e-02 3.268500e-14 1 
    0.617795 4.130313e-02 3.246500e-14 1 
    0.618070 4.134627e-02 3.247000e-14 1 
    0.618345 4.149396e-02 3.255700e-14 1 
    0.618620 4.162144e-02 3.262800e-14 1 
    0.618895 4.158696e-02 3.257200e-14 1 
    0.619170 4.146163e-02 3.244500e-14 1 
    0.619445 4.183614e-02 3.270900e-14 1 
    0.619720 4.163389e-02 3.252200e-14 1 
    0.619995 4.104301e-02 3.203200e-14 1 
    0.620270 4.111277e-02 3.205800e-14 1 
    0.620545 4.117747e-02 3.208000e-14 1 
    0.620820 4.200537e-02 3.269600e-14 1 
    0.621095 4.136366e-02 3.216800e-14 1 
    0.621370 4.143633e-02 3.219600e-14 1 
    0.621645 4.111233e-02 3.191600e-14 1 
    0.621920 4.154968e-02 3.222700e-14 1 
    0.622195 4.146772e-02 3.213500e-14 1 
    0.622470 4.189185e-02 3.243500e-14 1 
    0.622745 4.188751e-02 3.240300e-14 1 
    0.623020 4.148072e-02 3.206000e-14 1 
    0.623295 4.156526e-02 3.209700e-14 1 
    0.623570 4.131420e-02 3.187500e-14 1 
    0.623845 4.102763e-02 3.162600e-14 1 
    0.624120 4.013025e-02 3.090700e-14 1 
    0.624395 4.036705e-02 3.106200e-14 1 
    0.624670 4.117654e-02 3.165700e-14 1 
    0.624945 4.141328e-02 3.181100e-14 1 
    0.625220 4.173119e-02 3.202700e-14 1 
    0.625495 4.120843e-02 3.159800e-14 1 
    0.625770 4.043670e-02 3.097900e-14 1 
    0.626045 3.959954e-02 3.031100e-14 1 
    0.626320 3.850850e-02 2.945000e-14 1 
    0.626595 4.011019e-02 3.064800e-14 1 
    0.626870 3.976423e-02 3.035700e-14 1 
    0.627145 4.155985e-02 3.170000e-14 1 
    0.627420 4.121971e-02 3.141300e-14 1 
    0.627695 4.171552e-02 3.176300e-14 1 
    0.627970 4.190718e-02 3.188100e-14 1 
    0.628245 4.217282e-02 3.205500e-14 1 
    0.628520 4.238752e-02 3.219000e-14 1 
    0.628795 4.207141e-02 3.192200e-14 1 
    0.629070 4.189188e-02 3.175800e-14 1 
    0.629345 4.134233e-02 3.131400e-14 1 
    0.629620 4.198235e-02 3.177100e-14 1 
    0.629895 4.205077e-02 3.179500e-14 1 
    0.630170 4.328810e-02 3.270200e-14 1 
    0.630445 4.276017e-02 3.227500e-14 1 
    0.630720 4.220342e-02 3.182700e-14 1 
    0.630995 4.203983e-02 3.167600e-14 1 
    0.631270 4.147209e-02 3.122100e-14 1 
    0.631545 4.274067e-02 3.214800e-14 1 
    0.631820 4.153240e-02 3.121200e-14 1 
    0.632095 4.109178e-02 3.085400e-14 1 
    0.632370 4.118486e-02 3.089700e-14 1 
    0.632645 4.122870e-02 3.090300e-14 1 
    0.632920 4.152092e-02 3.109500e-14 1 
    0.633195 4.083934e-02 3.055800e-14 1 
    0.633470 4.187401e-02 3.130500e-14 1 
    0.633745 4.103080e-02 3.064800e-14 1 
    0.634020 4.031203e-02 3.008500e-14 1 
    0.634295 4.149097e-02 3.093800e-14 1 
    0.634570 4.048670e-02 3.016300e-14 1 
    0.634845 4.133726e-02 3.077000e-14 1 
    0.635120 4.100332e-02 3.049500e-14 1 
    0.635395 4.121513e-02 3.062600e-14 1 
    0.635670 4.117538e-02 3.057000e-14 1 
    0.635945 4.062594e-02 3.013600e-14 1 
    0.636220 4.187677e-02 3.103700e-14 1 
    0.636495 4.183330e-02 3.097800e-14 1 
    0.636770 4.227493e-02 3.127800e-14 1 
    0.637045 4.288232e-02 3.170000e-14 1 
    0.637320 4.203659e-02 3.104800e-14 1 
    0.637595 4.173139e-02 3.079600e-14 1 
    0.637870 4.137137e-02 3.050400e-14 1 
    0.638145 4.181292e-02 3.080300e-14 1 
    0.638420 4.178647e-02 3.075700e-14 1 
    0.638695 4.202509e-02 3.090600e-14 1 
    0.638970 4.273359e-02 3.140000e-14 1 
    0.639245 4.375791e-02 3.212500e-14 1 
    0.639520 4.595910e-02 3.371200e-14 1 
    0.639795 4.813129e-02 3.527500e-14 1 
    0.640070 4.980051e-02 3.646700e-14 1 
    0.640345 4.850110e-02 3.548500e-14 1 
    0.640620 4.536632e-02 3.316300e-14 1 
    0.640895 4.456325e-02 3.254800e-14 1 
    0.641170 4.402733e-02 3.212900e-14 1 
    0.641445 4.293635e-02 3.130600e-14 1 
    0.641720 4.294435e-02 3.128500e-14 1 
    0.641995 4.218845e-02 3.070800e-14 1 
    0.642270 4.218198e-02 3.067700e-14 1 
    0.642545 4.369616e-02 3.175100e-14 1 
    0.642820 4.284516e-02 3.110600e-14 1 
    0.643095 4.289698e-02 3.111700e-14 1 
    0.643370 4.265497e-02 3.091500e-14 1 
    0.643645 4.284058e-02 3.102300e-14 1 
    0.643920 4.340931e-02 3.140800e-14 1 
    0.644195 4.308674e-02 3.114800e-14 1 
    0.644470 4.322045e-02 3.121800e-14 1 
    0.644745 4.254650e-02 3.070500e-14 1 
    0.645020 4.235259e-02 3.053900e-14 1 
    0.645295 4.334227e-02 3.122600e-14 1 
    0.645570 4.374876e-02 3.149200e-14 1 
    0.645845 4.349962e-02 3.128600e-14 1 
    0.646120 4.387761e-02 3.153100e-14 1 
    0.646395 4.534671e-02 3.255900e-14 1 
    0.646670 4.471761e-02 3.208000e-14 1 
    0.646945 4.410552e-02 3.161400e-14 1 
    0.647220 4.442368e-02 3.181500e-14 1 
    0.647495 4.334484e-02 3.101600e-14 1 
    0.647770 4.236762e-02 3.029100e-14 1 
    0.648045 4.270317e-02 3.050500e-14 1 
    0.648320 4.344696e-02 3.101000e-14 1 
    0.648595 4.311644e-02 3.074800e-14 1 
    0.648870 4.352492e-02 3.101300e-14 1 
    0.649145 4.382027e-02 3.119700e-14 1 
    0.649420 4.342441e-02 3.088900e-14 1 
    0.649695 4.448128e-02 3.161400e-14 1 
    0.649970 4.378668e-02 3.109400e-14 1 
    0.650245 4.273568e-02 3.032200e-14 1 
    0.650520 4.302857e-02 3.050400e-14 1 
    0.650795 4.290260e-02 3.038900e-14 1 
    0.651070 4.344471e-02 3.074700e-14 1 
    0.651345 4.337818e-02 3.067400e-14 1 
    0.651620 4.214383e-02 2.977600e-14 1 
    0.651895 4.203633e-02 2.967500e-14 1 
    0.652170 4.323720e-02 3.049700e-14 1 
    0.652445 4.347942e-02 3.064200e-14 1 
    0.652720 4.339821e-02 3.055900e-14 1 
    0.652995 4.295010e-02 3.021800e-14 1 
    0.653270 4.328359e-02 3.042700e-14 1 
    0.653545 4.293849e-02 3.015900e-14 1 
    0.653820 4.288628e-02 3.009700e-14 1 
    0.654095 4.294518e-02 3.011300e-14 1 
    0.654370 4.421880e-02 3.098000e-14 1 
    0.654645 4.367456e-02 3.057300e-14 1 
    0.654920 4.320227e-02 3.021700e-14 1 
    0.655195 4.398122e-02 3.073600e-14 1 
    0.655470 4.299417e-02 3.002100e-14 1 
    0.655745 4.276222e-02 2.983400e-14 1 
    0.656020 4.243515e-02 2.958100e-14 1 
    0.656295 4.321732e-02 3.010100e-14 1 
    0.656570 4.286701e-02 2.983200e-14 1 
    0.656845 4.366515e-02 3.036200e-14 1 
    0.657120 4.504320e-02 3.129400e-14 1 
    0.657395 4.536758e-02 3.149300e-14 1 
    0.657670 4.535220e-02 3.145600e-14 1 
    0.657945 4.483747e-02 3.107300e-14 1 
    0.658220 4.313617e-02 2.986900e-14 1 
    0.658495 4.364775e-02 3.019800e-14 1 
    0.658770 4.331244e-02 2.994100e-14 1 
    0.659045 4.377571e-02 3.023600e-14 1 
    0.659320 4.428753e-02 3.056400e-14 1 
    0.659595 4.268138e-02 2.943100e-14 1 
    0.659870 4.376636e-02 3.015400e-14 1 
    0.660145 4.327700e-02 2.979200e-14 1 
    0.660420 4.462153e-02 3.069200e-14 1 
    0.660695 4.411741e-02 3.032000e-14 1 
    0.660970 4.403473e-02 3.023800e-14 1 
    0.661245 4.352191e-02 2.986100e-14 1 
    0.661520 4.454419e-02 3.053700e-14 1 
    0.661795 4.585866e-02 3.141200e-14 1 
    0.662070 4.569368e-02 3.127300e-14 1 
    0.662345 4.625809e-02 3.163300e-14 1 
    0.662620 4.559986e-02 3.115700e-14 1 
    0.662895 4.528471e-02 3.091600e-14 1 
    0.663170 4.564187e-02 3.113400e-14 1 
    0.663445 4.768099e-02 3.249800e-14 1 
    0.663720 4.830202e-02 3.289400e-14 1 
    0.663995 5.001450e-02 3.403200e-14 1 
    0.664270 5.309029e-02 3.609500e-14 1 
    0.664545 6.148235e-02 4.176600e-14 1 
    0.664820 7.677291e-02 5.211000e-14 1 
    0.665095 9.210936e-02 6.246800e-14 1 
    0.665370 1.000098e-01 6.777000e-14 1 
    0.665645 1.039532e-01 7.038400e-14 1 
    0.665920 1.219575e-01 8.250600e-14 1 
    0.666195 1.687388e-01 1.140600e-13 1 
    0.666470 2.306491e-01 1.557800e-13 1 
    0.666745 2.629062e-01 1.774200e-13 1 
    0.667020 2.309113e-01 1.557000e-13 1 
    0.667295 1.563239e-01 1.053200e-13 1 
    0.667570 1.012932e-01 6.818800e-14 1 
    0.667845 8.439830e-02 5.676800e-14 1 
    0.668120 9.517509e-02 6.396400e-14 1 
    0.668395 1.275760e-01 8.566900e-14 1 
    0.668670 1.602626e-01 1.075300e-13 1 
    0.668945 1.657046e-01 1.110900e-13 1 
    0.669220 1.345194e-01 9.010900e-14 1 
    0.669495 9.267919e-02 6.203100e-14 1 
    0.669770 6.566488e-02 4.391400e-14 1 
    0.670045 5.377348e-02 3.593200e-14 1 
    0.670320 4.939173e-02 3.297700e-14 1 
    0.670595 4.764547e-02 3.178500e-14 1 
    0.670870 4.808961e-02 3.205500e-14 1 
    0.671145 4.752697e-02 3.165400e-14 1 
    0.671420 4.715569e-02 3.138100e-14 1 
    0.671695 4.775077e-02 3.175100e-14 1 
    0.671970 4.661436e-02 3.097000e-14 1 
    0.672245 4.604395e-02 3.056600e-14 1 
    0.672520 4.555849e-02 3.021900e-14 1 
    0.672795 4.592015e-02 3.043400e-14 1 
    0.673070 4.606340e-02 3.050400e-14 1 
    0.673345 4.630055e-02 3.063600e-14 1 
    0.673620 4.644879e-02 3.070900e-14 1 
    0.673895 4.650337e-02 3.072000e-14 1 
    0.674170 4.702917e-02 3.104200e-14 1 
    0.674445 4.652169e-02 3.068200e-14 1 
    0.674720 4.650197e-02 3.064400e-14 1 
    0.674995 4.728407e-02 3.113400e-14 1 
    0.675270 4.745788e-02 3.122300e-14 1 
    0.675545 4.726379e-02 3.107000e-14 1 
    0.675820 4.797215e-02 3.151000e-14 1 
    0.676095 4.700710e-02 3.085100e-14 1 
    0.676370 4.691878e-02 3.076800e-14 1 
    0.676645 4.651130e-02 3.047600e-14 1 
    0.676920 4.662243e-02 3.052400e-14 1 
    0.677195 4.809572e-02 3.146300e-14 1 
    0.677470 4.710670e-02 3.079100e-14 1 
    0.677745 4.719089e-02 3.082100e-14 1 
    0.678020 4.909409e-02 3.203800e-14 1 
    0.678295 5.036695e-02 3.284200e-14 1 
    0.678570 4.739180e-02 3.087700e-14 1 
    0.678845 4.789873e-02 3.118200e-14 1 
    0.679120 4.744252e-02 3.086000e-14 1 
    0.679395 4.840103e-02 3.145800e-14 1 
    0.679670 4.741622e-02 3.079300e-14 1 
    0.679945 4.742378e-02 3.077300e-14 1 
    0.680220 4.781534e-02 3.100200e-14 1 
    0.680495 4.851621e-02 3.143100e-14 1 
    0.680770 4.768414e-02 3.086700e-14 1 
    0.681045 4.861940e-02 3.144700e-14 1 
    0.681320 5.165274e-02 3.338200e-14 1 
    0.682339 4.737188e-02 3.052400e-14 0 
    0.683912 4.725689e-02 3.031000e-14 0 
    0.685488 4.725252e-02 3.016800e-14 0 
    0.687068 4.779475e-02 3.037400e-14 0 
    0.688652 4.756959e-02 3.009200e-14 0 
    0.690240 4.789405e-02 3.015800e-14 0 
    0.691831 4.844375e-02 3.036400e-14 0 
    0.693426 4.877476e-02 3.043100e-14 0 
    0.695024 4.922043e-02 3.056800e-14 0 
    0.696626 4.910303e-02 3.035500e-14 0 
    0.698233 4.776000e-02 2.938900e-14 0 
    0.699842 4.853055e-02 2.972600e-14 0 
    0.701455 4.886112e-02 2.979100e-14 0 
    0.703072 4.930745e-02 2.992500e-14 0 
    0.704693 4.998863e-02 3.019900e-14 0 
    0.706318 5.056201e-02 3.040500e-14 0 
    0.707946 5.067340e-02 3.033200e-14 0 
    0.709578 4.849888e-02 2.889700e-14 0 
    0.711214 5.101417e-02 3.025600e-14 0 
    0.712853 5.100735e-02 3.011300e-14 0 
    0.714496 5.030341e-02 2.956100e-14 0 
    0.716143 5.303323e-02 3.102200e-14 0 
    0.717794 5.075685e-02 2.955400e-14 0 
    0.719449 5.145703e-02 2.982400e-14 0 
    0.721108 4.947596e-02 2.854400e-14 0 
    0.722770 5.027544e-02 2.887200e-14 0 
    0.724436 5.050223e-02 2.886900e-14 0 
    0.726106 4.991813e-02 2.840400e-14 0 
    0.727780 5.084065e-02 2.879600e-14 0 
    0.729457 5.036929e-02 2.839800e-14 0 
    0.731139 4.842974e-02 2.717900e-14 0 
    0.732825 4.909730e-02 2.742700e-14 0 
    0.734514 5.128770e-02 2.851900e-14 0 
    0.736207 5.139973e-02 2.845000e-14 0 
    0.737904 5.295648e-02 2.917700e-14 0 
    0.739605 5.198289e-02 2.850900e-14 0 
    0.741310 5.056139e-02 2.760200e-14 0 
    0.743019 5.318344e-02 2.890000e-14 0 
    0.744732 5.391702e-02 2.916400e-14 0 
    0.746449 5.593406e-02 3.011600e-14 0 
    0.748170 5.304271e-02 2.842800e-14 0 
    0.749894 5.630908e-02 3.004000e-14 0 
    0.751623 5.489305e-02 2.915000e-14 0 
    0.753356 5.603753e-02 2.962100e-14 0 
    0.755092 5.564420e-02 2.927800e-14 0 
    0.756833 5.602329e-02 2.934200e-14 0 
    0.758578 5.679598e-02 2.961000e-14 0 
    0.760326 5.731625e-02 2.974400e-14 0 
    0.762079 5.587534e-02 2.886300e-14 0 
    0.763836 5.690732e-02 2.926100e-14 0 
    0.765597 5.890109e-02 3.014700e-14 0 
    0.767361 5.835433e-02 2.973000e-14 0 
    0.769130 5.861580e-02 2.972600e-14 0 
    0.770904 5.901527e-02 2.979100e-14 0 
    0.772681 5.806572e-02 2.917700e-14 0 
    0.774462 5.886553e-02 2.944300e-14 0 
    0.776247 5.831972e-02 2.903600e-14 0 
    0.778037 5.885131e-02 2.916600e-14 0 
    0.779830 5.317531e-02 2.623200e-14 0 
    0.781628 5.789696e-02 2.843000e-14 0 
    0.783430 5.605289e-02 2.739800e-14 0 
    0.785236 5.841832e-02 2.842300e-14 0 
    0.787046 5.868175e-02 2.842000e-14 0 
    0.788860 5.853977e-02 2.822100e-14 0 
    0.790679 5.615515e-02 2.694700e-14 0 
    0.792501 5.893067e-02 2.814900e-14 0 
    0.794328 5.878836e-02 2.795200e-14 0 
    0.796159 6.001262e-02 2.840300e-14 0 
    0.797995 6.111969e-02 2.879400e-14 0 
    0.799834 6.139531e-02 2.879100e-14 0 
    0.801678 6.040620e-02 2.819700e-14 0 
    0.803526 5.998341e-02 2.787100e-14 0 
    0.805378 5.861054e-02 2.710800e-14 0 
    0.807235 5.833377e-02 2.685600e-14 0 
    0.809096 5.954790e-02 2.728900e-14 0 
    0.810961 6.106790e-02 2.785700e-14 0 
    0.812831 6.091821e-02 2.766100e-14 0 
    0.814704 6.133424e-02 2.772200e-14 0 
    0.816582 6.076382e-02 2.733800e-14 0 
    0.818465 6.075633e-02 2.720900e-14 0 
    0.820352 6.230648e-02 2.777500e-14 0 
    0.822243 6.130275e-02 2.720200e-14 0 
    0.824138 6.257953e-02 2.764100e-14 0 
    0.826038 6.329602e-02 2.782900e-14 0 
    0.827942 6.142201e-02 2.688100e-14 0 
    0.829851 6.255491e-02 2.725100e-14 0 
    0.831764 5.945829e-02 2.578300e-14 0 
    0.833681 6.027711e-02 2.601800e-14 0 
    0.835603 6.413497e-02 2.755600e-14 0 
    0.837529 6.353778e-02 2.717400e-14 0 
    0.839460 6.353042e-02 2.704600e-14 0 
    0.841395 6.236292e-02 2.642700e-14 0 
    0.843335 6.410170e-02 2.703900e-14 0 
    0.845279 6.335917e-02 2.660300e-14 0 
    0.847227 6.408460e-02 2.678400e-14 0 
    0.849180 6.437319e-02 2.678100e-14 0 
    0.851138 6.647182e-02 2.752700e-14 0 
    0.853100 6.188552e-02 2.551000e-14 0 
    0.855067 6.660925e-02 2.733100e-14 0 
    0.857038 6.478415e-02 2.646000e-14 0 
    0.859014 6.359511e-02 2.585500e-14 0 
    0.860994 6.314732e-02 2.555500e-14 0 
    0.862979 6.781040e-02 2.731600e-14 0 
    0.864968 6.504836e-02 2.608300e-14 0 
    0.866962 6.732539e-02 2.687200e-14 0 
    0.868960 4.978821e-02 1.978100e-14 0 
    0.870964 6.824423e-02 2.698900e-14 0 
    0.872971 6.652944e-02 2.619000e-14 0 
    0.874984 6.560656e-02 2.570800e-14 0 
    0.877001 6.821676e-02 2.660800e-14 0 
    0.879023 6.820717e-02 2.648200e-14 0 
    0.881049 4.568475e-02 1.765600e-14 0 
    0.883080 6.587486e-02 2.534200e-14 0 
    0.885116 6.802265e-02 2.604800e-14 0 
    0.887156 7.089183e-02 2.702200e-14 0 
    0.889201 6.738161e-02 2.556600e-14 0 
    0.891251 6.815337e-02 2.574000e-14 0 
    0.893305 7.135394e-02 2.682500e-14 0 
    0.895365 6.781933e-02 2.537900e-14 0 
    0.897429 6.796592e-02 2.531700e-14 0 
    0.899498 7.018375e-02 2.602300e-14 0 
    0.901571 6.312168e-02 2.329700e-14 0 
    0.903650 6.952118e-02 2.554100e-14 0 
    0.905733 7.080460e-02 2.589300e-14 0 
    0.907820 6.998298e-02 2.547500e-14 0 
    0.909913 6.885438e-02 2.494900e-14 0 
    0.912011 6.964361e-02 2.511900e-14 0 
    0.914113 6.120789e-02 2.197500e-14 0 
    0.916220 6.379050e-02 2.279700e-14 0 
    0.918333 7.189435e-02 2.557500e-14 0 
    0.920450 7.596812e-02 2.690000e-14 0 
    0.922571 6.879742e-02 2.424900e-14 0 
    0.924698 7.236142e-02 2.538800e-14 0 
    0.926830 7.611149e-02 2.658100e-14 0 
    0.928966 6.988394e-02 2.429400e-14 0 
    0.931108 6.536027e-02 2.261700e-14 0 
    0.933254 6.749383e-02 2.324800e-14 0 
    0.935406 7.230870e-02 2.479200e-14 0 
    0.937562 6.920251e-02 2.361800e-14 0 
    0.939723 7.064341e-02 2.399900e-14 0 
    0.941890 7.328211e-02 2.478100e-14 0 
    0.944061 7.567317e-02 2.547200e-14 0 
    0.946237 7.548818e-02 2.529300e-14 0 
    0.948418 7.582457e-02 2.528900e-14 0 
    0.950605 7.598791e-02 2.522700e-14 0 
    0.952796 7.545499e-02 2.493500e-14 0 
    0.954993 7.631713e-02 2.510400e-14 0 
    0.957194 7.683425e-02 2.515800e-14 0 
    0.959401 7.629305e-02 2.486600e-14 0 
    0.961612 7.752357e-02 2.515100e-14 0 
    0.963829 7.786906e-02 2.514700e-14 0 
    0.966051 7.678818e-02 2.468400e-14 0 
    0.968278 7.624882e-02 2.439800e-14 0 
    0.970510 7.247213e-02 2.308300e-14 0 
    0.972747 7.657894e-02 2.427900e-14 0 
    0.974990 7.889392e-02 2.489800e-14 0 
    0.977237 7.869772e-02 2.472200e-14 0 
    0.979490 7.850777e-02 2.454900e-14 0 
    0.981748 7.867417e-02 2.448800e-14 0 
    0.984011 7.975703e-02 2.471100e-14 0 
    0.986279 7.937934e-02 2.448100e-14 0 
    0.988553 7.918552e-02 2.430900e-14 0 
    0.990832 7.917144e-02 2.419300e-14 0 
    0.993116 7.970782e-02 2.424500e-14 0 
    0.995405 7.932924e-02 2.401900e-14 0 
    0.997700 8.097954e-02 2.440600e-14 0 
    1.000000 8.096667e-02 2.429000e-14 0 
    1.002305 8.076772e-02 2.411900e-14 0 
    1.004615 8.094196e-02 2.406000e-14 0 
    1.006931 8.111618e-02 2.400100e-14 0 
    1.009253 8.185402e-02 2.410800e-14 0 
    1.011580 8.221827e-02 2.410400e-14 0 
    1.013912 8.239561e-02 2.404500e-14 0 
    1.018591 8.142518e-02 2.354400e-14 0 
    1.023294 8.065350e-02 2.310700e-14 0 
    1.028017 8.365427e-02 2.374700e-14 0 
    1.032761 8.362463e-02 2.352100e-14 0 
    1.039921 8.494317e-02 2.356400e-14 0 
    1.044720 8.589996e-02 2.361100e-14 0 
    1.047129 8.568984e-02 2.344500e-14 0 
    1.066596 8.656583e-02 2.282800e-14 0 
    1.086425 8.654495e-02 2.199700e-14 0 
    1.106624 8.555581e-02 2.095900e-14 0 
    1.127198 8.634831e-02 2.038800e-14 0 
    1.148154 8.795415e-02 2.001600e-14 0 
    1.169499 9.083538e-02 1.992400e-14 0 
    1.188502 9.167364e-02 1.947000e-14 0 
    1.207813 9.209968e-02 1.894000e-14 0 
    1.230269 9.402751e-02 1.863700e-14 0 
    1.250259 9.555521e-02 1.833900e-14 0 
    1.270574 9.643638e-02 1.792100e-14 0 
    1.291219 9.755616e-02 1.755400e-14 0 
    1.309182 9.800410e-02 1.715400e-14 0 
    1.330455 9.982833e-02 1.691900e-14 0 
    1.352073 1.005212e-01 1.649600e-14 0 
    1.370882 1.016836e-01 1.623200e-14 0 
    1.393157 1.033328e-01 1.597200e-14 0 
    1.412538 1.033347e-01 1.553700e-14 0 
    1.432188 1.026265e-01 1.501000e-14 0 
    1.452112 1.033369e-01 1.470200e-14 0 
    1.472313 1.062320e-01 1.470200e-14 0 
    1.492794 1.067197e-01 1.436700e-14 0 
    1.513561 1.104732e-01 1.446700e-14 0 
    1.534617 1.133014e-01 1.443300e-14 0 
    1.555965 1.175570e-01 1.456700e-14 0 
    1.573983 1.200146e-01 1.453300e-14 0 
    1.595879 1.208471e-01 1.423500e-14 0 
    1.614359 1.191882e-01 1.372000e-14 0 
    1.636817 1.233847e-01 1.381600e-14 0 
    1.655770 1.259662e-01 1.378400e-14 0 
    1.674943 1.265438e-01 1.353200e-14 0 
    1.698244 1.291950e-01 1.343900e-14 0 
    1.717909 1.297943e-01 1.319400e-14 0 
    1.737800 1.306933e-01 1.298300e-14 0 
    1.757923 1.288961e-01 1.251300e-14 0 
    1.778279 1.292000e-01 1.225700e-14 0 
    1.798871 1.277117e-01 1.184000e-14 0 
    1.819702 1.268344e-01 1.149100e-14 0 
    1.840771 1.245251e-01 1.102500e-14 0 
    1.857805 1.239527e-01 1.077400e-14 0 
    1.879318 1.230963e-01 1.045600e-14 0 
    1.901077 1.208553e-01 1.003200e-14 0 
    1.918669 1.202948e-01 9.803200e-15 0 
    1.940886 1.216879e-01 9.691000e-15 0 
    1.958844 1.205722e-01 9.426900e-15 0 
    1.981527 1.189177e-01 9.085900e-15 0 
    1.999862 1.183717e-01 8.879100e-15 0 
    2.023020 1.180991e-01 8.657000e-15 0 
    2.041738 1.183715e-01 8.518600e-15 0 
    2.060630 1.167478e-01 8.248400e-15 0 
    2.084490 1.180998e-01 8.154000e-15 0 
    2.103778 1.175573e-01 7.968400e-15 0 
    2.123245 1.172860e-01 7.804900e-15 0 
    2.142890 1.175562e-01 7.680100e-15 0 
    2.162719 1.172862e-01 7.522600e-15 0 
    2.182731 1.172863e-01 7.385300e-15 0 
    2.202926 1.156766e-01 7.151000e-15 0 
    2.223311 1.164795e-01 7.069200e-15 0 
    2.243881 1.156775e-01 6.892400e-15 0 
    2.264644 1.151459e-01 6.735500e-15 0 
    2.285600 1.148803e-01 6.597300e-15 0 
    2.306747 1.137967e-01 6.415800e-15 0 
    2.328092 1.040769e-01 5.760700e-15 0 
    2.344228 1.040317e-01 5.679200e-15 0 
    2.365920 9.291418e-02 4.979700e-15 0 
    2.387810 8.827084e-02 4.644500e-15 0 
    2.409905 8.981907e-02 4.639700e-15 0 
    2.426611 8.349220e-02 4.253700e-15 0 
    2.449063 8.143762e-02 4.073300e-15 0 
    2.466040 8.143744e-02 4.017400e-15 0 
    2.488857 7.684784e-02 3.721800e-15 0 
    2.511887 7.659404e-02 3.641800e-15 0 
    2.529297 6.850275e-02 3.212400e-15 0 
    2.550060 7.163708e-02 3.304900e-15 2 
    2.559740 6.980787e-02 3.196200e-15 2 
    2.569420 7.053930e-02 3.205400e-15 2 
    2.579090 6.839284e-02 3.084600e-15 2 
    2.588770 6.988788e-02 3.128500e-15 2 
    2.598450 6.939422e-02 3.083300e-15 2 
    2.608120 7.252601e-02 3.198600e-15 2 
    2.617800 7.383975e-02 3.232500e-15 2 
    2.627470 7.665756e-02 3.331200e-15 2 
    2.637150 7.981981e-02 3.443200e-15 2 
    2.646830 8.155113e-02 3.492200e-15 2 
    2.656500 8.178113e-02 3.476600e-15 2 
    2.666180 7.995896e-02 3.374500e-15 2 
    2.675860 7.583635e-02 3.177400e-15 2 
    2.685530 7.547192e-02 3.139400e-15 2 
    2.695210 7.248659e-02 2.993600e-15 2 
    2.704880 7.287355e-02 2.988100e-15 2 
    2.714560 7.208686e-02 2.934800e-15 2 
    2.724240 7.368791e-02 2.978700e-15 2 
    2.733910 7.172304e-02 2.878800e-15 2 
    2.743590 7.419897e-02 2.957200e-15 2 
    2.753270 7.213347e-02 2.854700e-15 2 
    2.762940 7.441974e-02 2.924600e-15 2 
    2.772620 7.237707e-02 2.824500e-15 2 
    2.782290 7.274347e-02 2.819100e-15 2 
    2.791970 7.387412e-02 2.843100e-15 2 
    2.801650 7.384045e-02 2.822200e-15 2 
    2.811320 7.303379e-02 2.772200e-15 2 
    2.821000 7.258529e-02 2.736300e-15 2 
    2.830680 7.141764e-02 2.673900e-15 2 
    2.840350 7.379154e-02 2.744000e-15 2 
    2.850030 7.238925e-02 2.673600e-15 2 
    2.859700 7.537556e-02 2.765100e-15 2 
    2.869380 7.276353e-02 2.651300e-15 2 
    2.879060 7.176604e-02 2.597400e-15 2 
    2.888730 7.070238e-02 2.541800e-15 2 
    2.898410 7.184067e-02 2.565500e-15 2 
    2.908090 7.145591e-02 2.534800e-15 2 
    2.917760 7.316918e-02 2.578400e-15 2 
    2.927440 7.079027e-02 2.478100e-15 2 
    2.937110 7.013438e-02 2.439000e-15 2 
    2.946790 6.929780e-02 2.394100e-15 2 
    2.956470 7.004226e-02 2.404000e-15 2 
    2.966140 6.942491e-02 2.367300e-15 2 
    2.975820 7.063445e-02 2.392900e-15 2 
    2.985500 6.983500e-02 2.350500e-15 2 
    2.995170 6.921159e-02 2.314500e-15 2 
    3.004850 6.920823e-02 2.299500e-15 2 
    3.014520 6.954534e-02 2.295900e-15 2 
    3.024200 6.926103e-02 2.271900e-15 2 
    3.033880 6.957627e-02 2.267700e-15 2 
    3.043550 6.846429e-02 2.217300e-15 2 
    3.053230 6.807702e-02 2.190800e-15 2 
    3.062910 6.853438e-02 2.191600e-15 2 
    3.072580 6.841396e-02 2.174000e-15 2 
    3.082260 6.637878e-02 2.096100e-15 2 
    3.091930 6.916364e-02 2.170400e-15 2 
    3.101610 6.801329e-02 2.121000e-15 2 
    3.111290 6.825779e-02 2.115400e-15 2 
    3.120960 6.633855e-02 2.043200e-15 2 
    3.130640 6.560727e-02 2.008200e-15 2 
    3.140320 6.695046e-02 2.036700e-15 2 
    3.149990 6.864011e-02 2.075300e-15 2 
    3.159670 6.739870e-02 2.025300e-15 2 
    3.169340 6.918466e-02 2.066300e-15 2 
    3.179020 6.938557e-02 2.059700e-15 2 
    3.188700 7.042223e-02 2.077800e-15 2 
    3.198370 6.939740e-02 2.035200e-15 2 
    3.208050 6.895362e-02 2.010000e-15 2 
    3.217730 6.979488e-02 2.022300e-15 2 
    3.227400 7.328776e-02 2.110800e-15 2 
    3.237080 7.512172e-02 2.150700e-15 2 
    3.246750 8.283772e-02 2.357500e-15 2 
    3.256430 8.499023e-02 2.404400e-15 2 
    3.266110 9.300260e-02 2.615500e-15 2 
    3.275780 9.973503e-02 2.788300e-15 2 
    3.285460 1.137642e-01 3.161800e-15 2 
    3.295140 1.272045e-01 3.514600e-15 2 
    3.304810 1.462461e-01 4.017100e-15 2 
    3.314490 1.657214e-01 4.525500e-15 2 
    3.324160 1.849187e-01 5.020400e-15 2 
    3.333840 1.802103e-01 4.864200e-15 2 
    3.343520 1.782810e-01 4.784300e-15 2 
    3.353190 1.615446e-01 4.310200e-15 2 
    3.362870 1.399853e-01 3.713500e-15 2 
    3.372550 1.254221e-01 3.308100e-15 2 
    3.382220 1.094675e-01 2.870800e-15 2 
    3.391900 1.012822e-01 2.641000e-15 2 
    3.401570 1.000555e-01 2.594200e-15 2 
    3.411250 9.706498e-02 2.502400e-15 2 
    3.420930 9.801064e-02 2.512500e-15 2 
    3.430600 9.878520e-02 2.518100e-15 2 
    3.440280 1.019118e-01 2.583200e-15 2 
    3.449960 1.036882e-01 2.613500e-15 2 
    3.459630 1.043700e-01 2.616000e-15 2 
    3.469310 1.007021e-01 2.510000e-15 2 
    3.478980 1.031484e-01 2.556700e-15 2 
    3.488660 9.843703e-02 2.426400e-15 2 
    3.498340 9.898811e-02 2.426500e-15 2 
    3.508010 9.589351e-02 2.337700e-15 2 
    3.517690 9.650181e-02 2.339600e-15 2 
    3.527370 9.235948e-02 2.226900e-15 2 
    3.537040 9.532282e-02 2.285800e-15 2 
    3.546720 8.814681e-02 2.102200e-15 2 
    3.556390 9.143595e-02 2.168800e-15 2 
    3.566070 8.755131e-02 2.065400e-15 2 
    3.575750 8.892228e-02 2.086400e-15 2 
    3.585420 8.490027e-02 1.981300e-15 2 
    3.595100 8.561781e-02 1.987300e-15 2 
    3.604780 8.164407e-02 1.884900e-15 2 
    3.614450 8.368958e-02 1.921800e-15 2 
    3.624130 8.327158e-02 1.902000e-15 2 
    3.633800 8.051665e-02 1.829300e-15 2 
    3.643480 8.104355e-02 1.831500e-15 2 
    3.653160 8.238671e-02 1.852000e-15 2 
    3.662830 8.177696e-02 1.828600e-15 2 
    3.672510 8.281221e-02 1.842000e-15 2 
    3.682190 8.043820e-02 1.779800e-15 2 
    3.691860 8.117019e-02 1.786600e-15 2 
    3.701540 7.774629e-02 1.702300e-15 2 
    3.711210 7.747358e-02 1.687500e-15 2 
    3.720890 7.782286e-02 1.686300e-15 2 
    3.730570 7.891953e-02 1.701200e-15 2 
    3.740240 7.691369e-02 1.649400e-15 2 
    3.749920 7.697483e-02 1.642200e-15 2 
    3.759600 7.678853e-02 1.629800e-15 2 
    3.769270 8.043280e-02 1.698400e-15 2 
    3.778950 8.196510e-02 1.721900e-15 2 
    3.788620 8.251429e-02 1.724600e-15 2 
    3.798300 8.264314e-02 1.718500e-15 2 
    3.807980 8.188552e-02 1.694100e-15 2 
    3.817650 7.955221e-02 1.637500e-15 2 
    3.827330 8.056650e-02 1.650000e-15 2 
    3.837010 8.122484e-02 1.655100e-15 2 
    3.846680 7.994297e-02 1.620800e-15 2 
    3.856360 8.075728e-02 1.629100e-15 2 
    3.866030 8.118271e-02 1.629500e-15 2 
    3.875710 7.811988e-02 1.560200e-15 2 
    3.885390 8.295391e-02 1.648500e-15 2 
    3.895060 7.755162e-02 1.533500e-15 2 
    3.904740 7.833905e-02 1.541400e-15 2 
    3.914420 7.574002e-02 1.482900e-15 2 
    3.924090 7.696161e-02 1.499400e-15 2 
    3.933770 7.620182e-02 1.477300e-15 2 
    3.943440 7.895099e-02 1.523100e-15 2 
    3.953120 7.657307e-02 1.470000e-15 2 
    3.962800 7.749818e-02 1.480500e-15 2 
    3.972470 7.827663e-02 1.488100e-15 2 
    3.982150 7.764369e-02 1.468900e-15 2 
    3.991830 7.717179e-02 1.452900e-15 2 
    4.001500 7.819194e-02 1.465000e-15 2 
    4.011180 7.608219e-02 1.418600e-15 2 
    4.020850 7.830869e-02 1.453100e-15 2 
    4.030530 7.787394e-02 1.438100e-15 2 
    4.040210 7.992975e-02 1.469000e-15 2 
    4.049880 8.320495e-02 1.521900e-15 2 
    4.059560 8.357023e-02 1.521300e-15 2 
    4.069240 8.688909e-02 1.574200e-15 2 
    4.078910 9.528301e-02 1.718100e-15 2 
    4.088590 1.074875e-01 1.929000e-15 2 
    4.098260 1.210525e-01 2.162200e-15 2 
    4.107940 1.260294e-01 2.240500e-15 2 
    4.117620 1.126646e-01 1.993500e-15 2 
    4.127290 9.636997e-02 1.697200e-15 2 
    4.136970 8.820824e-02 1.546200e-15 2 
    4.146650 8.058586e-02 1.406000e-15 2 
    4.156320 8.070302e-02 1.401500e-15 2 
    4.166000 7.693718e-02 1.329900e-15 2 
    4.175670 7.713784e-02 1.327200e-15 2 
    4.185350 7.872209e-02 1.348200e-15 2 
    4.195030 7.735030e-02 1.318600e-15 2 
    4.204700 7.756587e-02 1.316200e-15 2 
    4.214380 7.912526e-02 1.336500e-15 2 
    4.224060 7.722909e-02 1.298500e-15 2 
    4.233730 7.791767e-02 1.304100e-15 2 
    4.243410 7.556140e-02 1.258900e-15 2 
    4.253080 7.566499e-02 1.254900e-15 2 
    4.262760 7.497405e-02 1.237800e-15 2 
    4.272440 7.655620e-02 1.258200e-15 2 
    4.282110 7.690314e-02 1.258200e-15 2 
    4.291790 7.804325e-02 1.271100e-15 2 
    4.301470 7.193828e-02 1.166400e-15 2 
    4.311140 7.286303e-02 1.176100e-15 2 
    4.320820 7.089426e-02 1.139200e-15 2 
    4.330490 7.353107e-02 1.176300e-15 2 
    4.340170 7.700597e-02 1.226400e-15 2 
    4.349850 7.773457e-02 1.232500e-15 2 
    4.359520 8.116579e-02 1.281200e-15 2 
    4.369200 8.080122e-02 1.269800e-15 2 
    4.378880 8.414450e-02 1.316500e-15 2 
    4.388550 8.426616e-02 1.312600e-15 2 
    4.398230 8.162703e-02 1.265900e-15 2 
    4.407900 8.133224e-02 1.255800e-15 2 
    4.417580 7.725344e-02 1.187600e-15 2 
    4.427260 8.323082e-02 1.273900e-15 2 
    4.436930 7.766264e-02 1.183500e-15 2 
    4.446610 7.808097e-02 1.184700e-15 2 
    4.456290 7.458198e-02 1.126700e-15 2 
    4.465960 7.806394e-02 1.174200e-15 2 
    4.475640 7.462347e-02 1.117600e-15 2 
    4.485310 7.214988e-02 1.075900e-15 2 
    4.494990 7.391638e-02 1.097500e-15 2 
    4.504670 7.338958e-02 1.085000e-15 2 
    4.514340 7.192522e-02 1.058800e-15 2 
    4.524020 7.070582e-02 1.036400e-15 2 
    4.533700 7.061134e-02 1.030600e-15 2 
    4.543370 7.317664e-02 1.063500e-15 2 
    4.553050 7.147795e-02 1.034400e-15 2 
    4.562720 7.135858e-02 1.028300e-15 2 
    4.572400 7.089510e-02 1.017300e-15 2 
    4.582080 7.298721e-02 1.042900e-15 2 
    4.591750 7.070927e-02 1.006100e-15 2 
    4.601430 6.808724e-02 9.647200e-16 2 
    4.611110 6.790340e-02 9.580800e-16 2 
    4.620780 6.758069e-02 9.495400e-16 2 
    4.630460 6.699362e-02 9.373600e-16 2 
    4.640130 6.848663e-02 9.542600e-16 2 
    4.649810 6.780839e-02 9.408800e-16 2 
    4.659490 6.954346e-02 9.609500e-16 2 
    4.669160 7.177053e-02 9.876200e-16 2 
    4.678840 7.366504e-02 1.009500e-15 2 
    4.688520 8.030105e-02 1.095900e-15 2 
    4.698190 8.262655e-02 1.123000e-15 2 
    4.707870 8.686087e-02 1.175700e-15 2 
    4.717540 8.458453e-02 1.140200e-15 2 
    4.727220 8.127461e-02 1.091100e-15 2 
    4.736900 8.218373e-02 1.098800e-15 2 
    4.746570 8.068717e-02 1.074400e-15 2 
    4.756250 8.091104e-02 1.073000e-15 2 
    4.765930 7.711434e-02 1.018500e-15 2 
    4.775600 7.945734e-02 1.045200e-15 2 
    4.785280 7.732197e-02 1.013000e-15 2 
    4.794950 8.287685e-02 1.081400e-15 2 
    4.804630 7.954908e-02 1.033800e-15 2 
    4.814310 7.546157e-02 9.767399e-16 2 
    4.823980 7.753438e-02 9.995500e-16 2 
    4.833660 7.719944e-02 9.912500e-16 2 
    4.843340 7.401058e-02 9.465100e-16 2 
    4.853010 7.639702e-02 9.731400e-16 2 
    4.862690 7.828321e-02 9.932000e-16 2 
    4.872360 7.543114e-02 9.532200e-16 2 
    4.882040 7.468323e-02 9.400300e-16 2 
    4.891720 7.173412e-02 8.993400e-16 2 
    4.901390 7.211091e-02 9.005000e-16 2 
    4.911070 7.477492e-02 9.300900e-16 2 
    4.920750 7.280599e-02 9.020400e-16 2 
    4.930420 7.497070e-02 9.252200e-16 2 
    4.940100 6.936272e-02 8.526600e-16 2 
    4.949870 6.781609e-02 8.303600e-16 2 
    4.999369 6.775206e-02 8.132300e-16 0 
    5.049362 6.764189e-02 7.959100e-16 0 
    5.099856 6.748606e-02 7.784300e-16 0 
    5.150855 6.728075e-02 7.607700e-16 0 
    5.202363 6.702453e-02 7.429400e-16 0 
    5.217250 6.694049e-02 7.377800e-16 3 
    5.247490 8.148865e-02 8.878000e-16 3 
    5.277730 9.444510e-02 1.017200e-15 3 
    5.307970 1.120690e-01 1.193300e-15 3 
    5.338210 1.243777e-01 1.309400e-15 3 
    5.368460 1.143880e-01 1.190700e-15 3 
    5.398700 1.171668e-01 1.206000e-15 3 
    5.428940 1.232282e-01 1.254300e-15 3 
    5.459180 1.084618e-01 1.091800e-15 3 
    5.489420 9.003256e-02 8.963299e-16 3 
    5.519670 8.551815e-02 8.420800e-16 3 
    5.549910 8.935311e-02 8.702800e-16 3 
    5.580150 9.862155e-02 9.501700e-16 3 
    5.610390 1.101467e-01 1.049800e-15 3 
    5.640630 1.089298e-01 1.027100e-15 3 
    5.670880 1.209710e-01 1.128500e-15 3 
    5.701120 1.399786e-01 1.292000e-15 3 
    5.731360 1.675054e-01 1.529800e-15 3 
    5.761600 1.845810e-01 1.668100e-15 3 
    5.791840 1.941049e-01 1.735900e-15 3 
    5.822090 1.915165e-01 1.695000e-15 3 
    5.852330 1.903145e-01 1.667000e-15 3 
    5.882570 1.781100e-01 1.544100e-15 3 
    5.912810 1.694226e-01 1.453800e-15 3 
    5.943050 1.794954e-01 1.524600e-15 3 
    5.973300 1.928878e-01 1.621800e-15 3 
    6.003540 1.908450e-01 1.588500e-15 3 
    6.033780 1.961825e-01 1.616600e-15 3 
    6.064020 2.151549e-01 1.755300e-15 3 
    6.094260 2.526882e-01 2.041100e-15 3 
    6.124510 2.958259e-01 2.366000e-15 3 
    6.154750 3.103333e-01 2.457700e-15 3 
    6.184990 3.180318e-01 2.494100e-15 3 
    6.215230 3.759898e-01 2.920000e-15 3 
    6.245470 5.039952e-01 3.876300e-15 3 
    6.275720 7.738692e-01 5.894700e-15 3 
    6.305960 9.924185e-01 7.487100e-15 3 
    6.336200 1.024790e+00 7.657700e-15 3 
    6.366440 8.942612e-01 6.619000e-15 3 
    6.396680 7.207757e-01 5.284600e-15 3 
    6.426930 6.008288e-01 4.363800e-15 3 
    6.457170 5.235230e-01 3.766800e-15 3 
    6.487410 4.717475e-01 3.362700e-15 3 
    6.517650 4.339449e-01 3.064600e-15 3 
    6.547890 4.000939e-01 2.799500e-15 3 
    6.578140 3.667584e-01 2.542700e-15 3 
    6.608380 3.433098e-01 2.358400e-15 3 
    6.638620 3.304024e-01 2.249100e-15 3 
    6.668860 3.329449e-01 2.245900e-15 3 
    6.699100 3.456649e-01 2.310700e-15 3 
    6.729350 3.591939e-01 2.379600e-15 3 
    6.759590 3.685369e-01 2.419700e-15 3 
    6.789830 3.681381e-01 2.395600e-15 3 
    6.820070 3.656105e-01 2.358100e-15 3 
    6.850310 3.722855e-01 2.380000e-15 3 
    6.880560 3.621514e-01 2.294900e-15 3 
    6.910800 3.701335e-01 2.325000e-15 3 
    6.941040 3.754996e-01 2.338200e-15 3 
    6.971280 3.785680e-01 2.336900e-15 3 
    7.001520 3.945397e-01 2.414500e-15 3 
    7.031770 4.206354e-01 2.552100e-15 3 
    7.062010 4.659540e-01 2.802900e-15 3 
    7.092250 6.008168e-01 3.583400e-15 3 
    7.122490 6.590655e-01 3.897500e-15 3 
    7.152730 5.616685e-01 3.293500e-15 3 
    7.182980 5.500736e-01 3.198400e-15 3 
    7.213220 5.661964e-01 3.264600e-15 3 
    7.243460 5.735421e-01 3.279400e-15 3 
    7.273700 5.775650e-01 3.275000e-15 3 
    7.303940 6.015291e-01 3.382700e-15 3 
    7.334190 6.184096e-01 3.449000e-15 3 
    7.364430 6.556448e-01 3.626700e-15 3 
    7.394670 6.835326e-01 3.750100e-15 3 
    7.424910 7.320067e-01 3.983400e-15 3 
    7.455150 6.633199e-01 3.580400e-15 3 
    7.485400 8.647297e-01 4.629900e-15 3 
    7.515640 9.333744e-01 4.957300e-15 3 
    7.545880 1.030316e+00 5.428400e-15 3 
    7.576120 1.005338e+00 5.254600e-15 3 
    7.636600 1.216390e+00 6.257400e-15 3 
    7.697090 1.397377e+00 7.075900e-15 3 
    7.757570 1.497777e+00 7.466500e-15 3 
    7.818050 1.486974e+00 7.298400e-15 3 
    7.878540 1.456091e+00 7.037500e-15 3 
    7.939020 1.429434e+00 6.803800e-15 3 
    7.999510 1.349445e+00 6.326300e-15 3 
    8.059990 1.219645e+00 5.632300e-15 3 
    8.120470 1.078658e+00 4.907300e-15 3 
    8.180959 9.506690e-01 4.261300e-15 3 
    8.241440 8.471148e-01 3.741600e-15 3 
    8.301920 7.846296e-01 3.415300e-15 3 
    8.362409 7.597184e-01 3.259200e-15 3 
    8.422890 7.879160e-01 3.331800e-15 3 
    8.483370 8.201665e-01 3.418900e-15 3 
    8.543860 8.454576e-01 3.474600e-15 3 
    8.604340 8.943141e-01 3.623900e-15 3 
    8.664830 9.627666e-01 3.847000e-15 3 
    8.725310 9.987631e-01 3.935700e-15 3 
    8.785791 9.911211e-01 3.852000e-15 3 
    8.846280 8.738661e-01 3.350000e-15 3 
    8.906760 7.630260e-01 2.885500e-15 3 
    8.967241 6.512252e-01 2.429600e-15 3 
    9.027730 5.719663e-01 2.105400e-15 3 
    9.088210 5.420471e-01 1.968800e-15 3 
    9.148690 5.439846e-01 1.949800e-15 3 
    9.209180 4.871145e-01 1.723100e-15 3 
    9.269660 4.513152e-01 1.575700e-15 3 
    9.330150 4.371446e-01 1.506500e-15 3 
    9.390630 4.338061e-01 1.475800e-15 3 
    9.451110 4.225596e-01 1.419200e-15 3 
    9.511599 4.215926e-01 1.398000e-15 3 
    9.572080 4.175643e-01 1.367200e-15 3 
    9.632560 4.105172e-01 1.327300e-15 3 
    9.693050 4.101772e-01 1.309700e-15 3 
    9.753530 4.132505e-01 1.303200e-15 3 
    9.814009 4.212809e-01 1.312200e-15 3 
    9.874500 4.136844e-01 1.272800e-15 3 
    9.934980 3.991912e-01 1.213300e-15 3 
    9.995470 3.918115e-01 1.176500e-15 3 
   10.055950 3.933314e-01 1.166900e-15 3 
   10.116430 4.008401e-01 1.175000e-15 3 
   10.176920 4.064766e-01 1.177400e-15 3 
   10.237400 4.183091e-01 1.197400e-15 3 
   10.297880 4.272607e-01 1.208700e-15 3 
   10.358370 4.315796e-01 1.206700e-15 3 
   10.418850 4.444499e-01 1.228300e-15 3 
   10.479330 4.569825e-01 1.248400e-15 3 
   10.539820 4.700866e-01 1.269500e-15 3 
   10.600300 4.951237e-01 1.321900e-15 3 
   10.660791 5.353031e-01 1.413000e-15 3 
   10.721270 5.737320e-01 1.497400e-15 3 
   10.781750 5.796419e-01 1.495900e-15 3 
   10.842241 5.874966e-01 1.499300e-15 3 
   10.902720 5.998145e-01 1.513800e-15 3 
   10.963200 6.121366e-01 1.527900e-15 3 
   11.023690 6.212191e-01 1.533600e-15 3 
   11.084170 6.622091e-01 1.617000e-15 3 
   11.144651 7.385953e-01 1.784000e-15 3 
   11.205140 8.264877e-01 1.974800e-15 3 
   11.265620 9.145015e-01 2.161700e-15 3 
   11.326110 1.215161e+00 2.841800e-15 3 
   11.386590 1.705993e+00 3.947400e-15 3 
   11.447070 1.864721e+00 4.269200e-15 3 
   11.507560 1.680018e+00 3.806000e-15 3 
   11.568040 1.461131e+00 3.275600e-15 3 
   11.628520 1.302057e+00 2.888700e-15 3 
   11.689009 1.192806e+00 2.619000e-15 3 
   11.749490 1.137490e+00 2.471900e-15 3 
   11.809970 1.099624e+00 2.365200e-15 3 
   11.870459 1.057184e+00 2.250800e-15 3 
   11.930940 1.071875e+00 2.259000e-15 3 
   11.991430 1.093508e+00 2.281400e-15 3 
   12.051910 1.145285e+00 2.365500e-15 3 
   12.112390 1.213340e+00 2.481100e-15 3 
   12.172880 1.254533e+00 2.539900e-15 3 
   12.233360 1.273066e+00 2.552000e-15 3 
   12.293841 1.272838e+00 2.526500e-15 3 
   12.354330 1.266570e+00 2.489500e-15 3 
   12.414810 1.312807e+00 2.555300e-15 3 
   12.475291 1.386118e+00 2.671900e-15 3 
   12.535780 1.440608e+00 2.750200e-15 3 
   12.596260 1.498916e+00 2.834100e-15 3 
   12.656750 1.561725e+00 2.924700e-15 3 
   12.717230 1.641700e+00 3.045300e-15 3 
   12.777710 1.741763e+00 3.200400e-15 3 
   12.838200 1.843725e+00 3.355900e-15 3 
   12.898680 1.965787e+00 3.544600e-15 3 
   12.959160 2.340577e+00 4.181100e-15 3 
   13.019651 3.189412e+00 5.644600e-15 3 
   13.080130 2.802451e+00 4.914000e-15 3 
   13.140609 1.649973e+00 2.866600e-15 3 
   13.201100 1.496216e+00 2.575700e-15 3 
   13.261580 1.472907e+00 2.512500e-15 3 
   13.322059 1.452888e+00 2.455900e-15 3 
   13.382550 1.466828e+00 2.457100e-15 3 
   13.443030 1.481984e+00 2.460200e-15 3 
   13.503520 1.498816e+00 2.465900e-15 3 
   13.564000 1.508530e+00 2.459800e-15 3 
   13.624480 1.539648e+00 2.488300e-15 3 
   13.684970 1.567645e+00 2.511200e-15 3 
   13.745450 1.603386e+00 2.545900e-15 3 
   13.805930 1.621529e+00 2.552200e-15 3 
   13.866420 1.626925e+00 2.538400e-15 3 
   13.926900 1.617485e+00 2.501800e-15 3 
   13.987380 1.640498e+00 2.515500e-15 3 
   14.047870 1.660178e+00 2.523800e-15 3 
   14.108350 1.679812e+00 2.531800e-15 3 
   14.168841 1.698931e+00 2.538800e-15 3 
   14.229320 1.711981e+00 2.536600e-15 3 
   14.289800 1.712748e+00 2.516300e-15 3 
   14.350291 1.678817e+00 2.445700e-15 3 
   14.410770 1.655409e+00 2.391400e-15 3 
   14.471250 1.629544e+00 2.334400e-15 3 
   14.577409 1.690940e+00 2.387200e-15 3 
   14.662091 1.702832e+00 2.376300e-15 3 
   14.746770 1.737853e+00 2.397400e-15 3 
   14.831450 1.765128e+00 2.407300e-15 3 
   14.916120 1.791346e+00 2.415400e-15 3 
   15.000800 1.818869e+00 2.424900e-15 3 
   15.085480 1.787727e+00 2.356700e-15 3 
   15.170150 1.778011e+00 2.317800e-15 3 
   15.254830 1.834064e+00 2.364400e-15 3 
   15.339509 1.873228e+00 2.388300e-15 3 
   15.424180 1.894995e+00 2.389600e-15 3 
   15.508859 1.909526e+00 2.381700e-15 3 
   15.593541 1.940405e+00 2.394000e-15 3 
   15.678211 2.136958e+00 2.608100e-15 3 
   15.762891 2.560139e+00 3.091100e-15 3 
   15.847570 2.341094e+00 2.796500e-15 3 
   15.932239 2.061066e+00 2.435900e-15 3 
   16.016920 2.106977e+00 2.463900e-15 3 
   16.101600 2.161723e+00 2.501400e-15 3 
   16.186280 2.199104e+00 2.518100e-15 3 
   16.270950 2.238409e+00 2.536500e-15 3 
   16.355631 2.345320e+00 2.630200e-15 3 
   16.440309 2.448321e+00 2.717500e-15 3 
   16.524981 2.567087e+00 2.820200e-15 3 
   16.609659 2.703080e+00 2.939400e-15 3 
   16.694339 2.782179e+00 2.994800e-15 3 
   16.779011 2.799680e+00 2.983300e-15 3 
   16.863689 2.835593e+00 2.991300e-15 3 
   16.948370 2.890090e+00 3.018400e-15 3 
   17.033039 2.904049e+00 3.002900e-15 3 
   17.117720 2.912289e+00 2.981700e-15 3 
   17.202400 2.991481e+00 3.032700e-15 3 
   17.287069 3.193035e+00 3.205400e-15 3 
   17.371750 3.210211e+00 3.191300e-15 3 
   17.456430 3.192116e+00 3.142600e-15 3 
   17.541109 3.212494e+00 3.132200e-15 3 
   17.625780 3.214483e+00 3.104100e-15 3 
   17.710461 3.187731e+00 3.048900e-15 3 
   17.795139 3.147248e+00 2.981600e-15 3 
   17.879811 3.167252e+00 2.972200e-15 3 
   17.964491 3.214320e+00 2.988000e-15 3 
   18.049170 3.247409e+00 2.990500e-15 3 
   18.133841 3.285073e+00 2.997000e-15 3 
   18.218519 3.285178e+00 2.969300e-15 3 
   18.303200 3.294683e+00 2.950400e-15 3 
   18.387870 3.354877e+00 2.976700e-15 3 
   18.472550 3.357071e+00 2.951400e-15 3 
   18.557230 3.389756e+00 2.953000e-15 3 
   18.641898 3.426898e+00 2.958300e-15 3 
   18.726580 3.482300e+00 2.979000e-15 3 
   18.811261 3.582868e+00 3.037500e-15 3 
   18.895941 4.023433e+00 3.380500e-15 3 
   18.980609 4.611013e+00 3.839700e-15 3 
   19.065291 4.134039e+00 3.412000e-15 3 
   19.149969 3.792143e+00 3.102200e-15 3 
   19.234641 3.725735e+00 3.021100e-15 3 
   19.319320 3.808626e+00 3.061300e-15 3 
   19.404000 3.916260e+00 3.120400e-15 3 
   19.488670 3.847458e+00 3.039000e-15 3 
   19.573352 3.923492e+00 3.072300e-15 3 
   19.658030 4.080014e+00 3.167400e-15 3 
   19.742700 4.034163e+00 3.105000e-15 3 
   19.827380 4.115888e+00 3.140900e-15 3 
   19.912059 4.166318e+00 3.152400e-15 3 
   19.996731 4.196761e+00 3.148600e-15 3 
   20.081409 4.219475e+00 3.139000e-15 3 
   20.166091 4.267337e+00 3.148000e-15 3 
   20.250770 4.327992e+00 3.166100e-15 3 
   20.335439 4.332693e+00 3.143200e-15 3 
   20.420120 4.411801e+00 3.174100e-15 3 
   20.589470 4.327439e+00 3.062400e-15 3 
   20.758830 4.658343e+00 3.243000e-15 3 
   20.928181 4.874961e+00 3.339100e-15 3 
   21.097530 4.366043e+00 2.942700e-15 3 
   21.266889 4.670249e+00 3.097800e-15 3 
   21.436239 5.094154e+00 3.325800e-15 3 
   21.605600 4.939698e+00 3.174600e-15 3 
   21.774950 4.937150e+00 3.123800e-15 3 
   21.944300 5.284395e+00 3.292100e-15 3 
   22.113661 5.398225e+00 3.311700e-15 3 
   22.283011 5.427267e+00 3.279100e-15 3 
   22.452359 5.390431e+00 3.207900e-15 3 
   22.621719 5.648098e+00 3.311100e-15 3 
   22.791070 5.836175e+00 3.370700e-15 3 
   22.960430 5.756820e+00 3.276000e-15 3 
   23.129780 5.806211e+00 3.255900e-15 3 
   23.299130 6.069962e+00 3.354500e-15 3 
   23.468491 6.167706e+00 3.359500e-15 3 
   23.637841 6.301741e+00 3.383500e-15 3 
   23.807191 6.457729e+00 3.418100e-15 3 
   23.976548 6.523297e+00 3.404200e-15 3 
   24.145900 6.398888e+00 3.292600e-15 3 
   24.315259 6.376633e+00 3.235600e-15 3 
   24.484609 6.436590e+00 3.221000e-15 3 
   24.653959 6.641624e+00 3.278100e-15 3 
   24.823320 6.795012e+00 3.308200e-15 3 
   24.992670 6.833491e+00 3.282000e-15 3 
   25.162020 6.756734e+00 3.201600e-15 3 
   25.331381 6.820832e+00 3.188900e-15 3 
   25.500731 6.868334e+00 3.168600e-15 3 
   25.670089 7.093414e+00 3.229400e-15 3 
   25.839439 7.268550e+00 3.265900e-15 3 
   26.008789 7.304384e+00 3.239400e-15 3 
   26.178150 7.432944e+00 3.253900e-15 3 
   26.347500 7.578943e+00 3.275300e-15 3 
   26.516850 7.620433e+00 3.251300e-15 3 
   26.686209 7.765325e+00 3.271200e-15 3 
   26.855559 7.851694e+00 3.266000e-15 3 
   27.024919 7.884331e+00 3.238600e-15 3 
   27.194269 8.019197e+00 3.253100e-15 3 
   27.363622 8.258909e+00 3.309000e-15 3 
   27.532981 8.332651e+00 3.297600e-15 3 
   27.702328 8.362564e+00 3.269100e-15 3 
   27.871678 8.450879e+00 3.263600e-15 3 
   28.041041 8.604218e+00 3.282800e-15 3 
   28.210391 8.811652e+00 3.321700e-15 3 
   28.379750 8.836692e+00 3.291500e-15 3 
   28.549100 8.966649e+00 3.300400e-15 3 
   28.718450 8.882276e+00 3.230900e-15 3 
   28.887809 8.934216e+00 3.211800e-15 3 
   29.057159 9.076142e+00 3.224900e-15 3 
   29.226509 9.232927e+00 3.242700e-15 3 
   29.395869 9.445375e+00 3.279200e-15 3 
   29.565219 9.501199e+00 3.260900e-15 3 
   29.734578 9.610068e+00 3.260800e-15 3 
   29.903931 9.796454e+00 3.286500e-15 3 
   30.073281 9.869742e+00 3.273900e-15 3 
   30.242641 9.950122e+00 3.263700e-15 3 
   30.411991 1.004430e+01 3.258000e-15 3 
   30.581341 1.015117e+01 3.256300e-15 3 
   30.750700 1.028724e+01 3.263700e-15 3 
   30.920050 1.042636e+01 3.271700e-15 3 
   31.089409 1.036530e+01 3.217200e-15 3 
   31.258759 1.073160e+01 3.294900e-15 3 
   31.428109 1.077807e+01 3.273600e-15 3 
   31.597469 1.090020e+01 3.275300e-15 3 
   31.766822 1.126594e+01 3.349200e-15 3 
   31.936172 1.143873e+01 3.364600e-15 3 
   32.105531 1.148479e+01 3.342600e-15 3 
   32.274878 1.193647e+01 3.437700e-15 3 
   32.444241 1.220523e+01 3.478500e-15 3 
   32.613591 1.249891e+01 3.525300e-15 3 
   32.782941 1.267490e+01 3.538100e-15 3 
   32.952300 1.284565e+01 3.549000e-15 3 
   33.121650 1.340661e+01 3.666200e-15 3 
   33.291000 1.381004e+01 3.738200e-15 3 
   33.460363 1.395315e+01 3.738800e-15 3 
   33.629713 1.368346e+01 3.629700e-15 3 
   33.799069 1.457445e+01 3.827400e-15 3 
   33.968419 1.611472e+01 4.189800e-15 3 
   34.137772 1.531241e+01 3.941800e-15 3 
   34.307128 1.515674e+01 3.863300e-15 3 
   34.476478 1.534360e+01 3.872600e-15 3 
   34.645828 1.552351e+01 3.879800e-15 3 
   34.815191 1.557182e+01 3.854100e-15 3 
   34.984538 1.556130e+01 3.814300e-15 3 
