# NGC 0750       
# 
# An Atlas of Galaxy Spectral Energy Distributions from the Ultraviolet to the Mid-Infrared
# Brown et al. (2014)
# http://dx.doi.org/10.5072/03/529D3551F0117
# http://dx.doi.org/10.17909/t9-5bxk-dh29
# 
# The Spectral Energy Distributions of Active Galactic Nuclei
# Brown et al. (2019)
# http://dx.doi.org/10.17909/t9-3dbt-8734
# 
# Column 1: Observed wavelength (um)
# Column 2: f_nu (Jy)
# Column 3: f_lam (erg/s/cm2/A)
# Column 4: Source (0 = model, 1 = Optical Spectrun, 2 = Akari, 3 = Spitzer IRS)
# 
    0.010375 7.504705e-10 2.091600e-18 0 
    0.010568 9.085382e-10 2.440500e-18 0 
    0.010789 1.133256e-09 2.920700e-18 0 
    0.010990 1.436679e-09 3.568500e-18 0 
    0.011194 2.071720e-09 4.960000e-18 0 
    0.011588 2.974296e-09 6.644900e-18 0 
    0.011995 4.030559e-09 8.404000e-18 0 
    0.012303 1.450065e-08 2.874000e-17 0 
    0.012706 1.850884e-08 3.439400e-17 0 
    0.012912 2.033981e-08 3.660000e-17 0 
    0.013032 2.169617e-08 3.832500e-17 0 
    0.013335 2.456674e-08 4.144600e-17 0 
    0.013428 2.899945e-08 4.824900e-17 0 
    0.013646 3.121556e-08 5.029000e-17 0 
    0.013932 4.003067e-08 6.187100e-17 0 
    0.014256 4.480825e-08 6.614300e-17 0 
    0.014555 1.195035e-07 1.692300e-16 0 
    0.014962 2.886320e-07 3.868000e-16 0 
    0.015346 3.186782e-07 4.059600e-16 0 
    0.015776 3.583903e-07 4.320000e-16 0 
    0.016181 4.021366e-07 4.607700e-16 0 
    0.016482 4.348946e-07 4.802700e-16 0 
    0.016904 4.901673e-07 5.146200e-16 0 
    0.017298 5.374704e-07 5.388700e-16 0 
    0.017579 5.785701e-07 5.616800e-16 0 
    0.017989 6.344259e-07 5.881500e-16 0 
    0.018323 6.797572e-07 6.074100e-16 0 
    0.018493 7.085598e-07 6.215600e-16 0 
    0.018923 7.732974e-07 6.478700e-16 0 
    0.019409 8.538241e-07 6.799600e-16 0 
    0.019724 9.148575e-07 7.054800e-16 0 
    0.020137 9.870786e-07 7.302700e-16 0 
    0.020559 1.069967e-06 7.594300e-16 0 
    0.020845 1.128158e-06 7.789100e-16 0 
    0.021380 1.184083e-06 7.771200e-16 0 
    0.021979 1.368926e-06 8.501300e-16 0 
    0.022387 1.470138e-06 8.800100e-16 0 
    0.022699 1.525382e-06 8.881500e-16 0 
    0.023067 1.634357e-06 9.214800e-16 0 
    0.023388 2.542996e-06 1.394700e-15 0 
    0.023823 4.388939e-06 2.320000e-15 0 
    0.024434 5.825725e-06 2.927400e-15 0 
    0.025003 5.653857e-06 2.713200e-15 0 
    0.025645 6.285973e-06 2.867400e-15 0 
    0.026122 5.313529e-06 2.336100e-15 0 
    0.026424 6.402748e-06 2.751000e-15 0 
    0.026853 6.955813e-06 2.893900e-15 0 
    0.027353 7.151168e-06 2.867400e-15 0 
    0.027861 7.317311e-06 2.828000e-15 0 
    0.028379 7.436228e-06 2.770000e-15 0 
    0.028907 7.697961e-06 2.763700e-15 0 
    0.029512 7.574723e-06 2.609100e-15 0 
    0.030130 7.858970e-06 2.597100e-15 0 
    0.030620 7.805078e-06 2.497400e-15 0 
    0.031333 8.210432e-06 2.508900e-15 0 
    0.032359 8.756938e-06 2.508900e-15 0 
    0.033343 9.086008e-06 2.451800e-15 0 
    0.034356 9.297496e-06 2.363100e-15 0 
    0.035400 9.513991e-06 2.277600e-15 0 
    0.036308 9.894061e-06 2.251600e-15 0 
    0.037239 1.055265e-05 2.282900e-15 0 
    0.038107 1.072456e-05 2.215600e-15 0 
    0.039174 1.045576e-05 2.044000e-15 0 
    0.040179 1.141186e-05 2.120700e-15 0 
    0.041210 1.208824e-05 2.135400e-15 0 
    0.042073 1.225643e-05 2.077200e-15 0 
    0.042954 1.220006e-05 1.983700e-15 0 
    0.043752 1.225623e-05 1.920800e-15 0 
    0.044875 1.286393e-05 1.916400e-15 0 
    0.045920 1.307290e-05 1.859900e-15 0 
    0.046774 1.289348e-05 1.768000e-15 0 
    0.047863 1.313278e-05 1.719800e-15 0 
    0.048865 1.368839e-05 1.719800e-15 0 
    0.049888 1.331515e-05 1.605000e-15 0 
    0.050816 1.413704e-05 1.642400e-15 0 
    0.051523 1.378367e-05 1.557700e-15 0 
    0.052119 1.575235e-05 1.739700e-15 0 
    0.052845 1.568135e-05 1.684600e-15 0 
    0.053951 1.550147e-05 1.597700e-15 0 
    0.054954 1.463363e-05 1.453700e-15 0 
    0.055976 1.460019e-05 1.397900e-15 0 
    0.057016 1.611975e-05 1.487600e-15 0 
    0.057943 1.703540e-05 1.522200e-15 0 
    0.059020 1.699648e-05 1.463800e-15 0 
    0.059979 1.731227e-05 1.443700e-15 0 
    0.061094 1.638184e-05 1.316700e-15 0 
    0.062087 1.487180e-05 1.157400e-15 0 
    0.063096 1.804502e-05 1.359800e-15 0 
    0.064121 1.767535e-05 1.289700e-15 0 
    0.065163 1.867911e-05 1.319700e-15 0 
    0.066069 1.842369e-05 1.266200e-15 0 
    0.066988 1.787927e-05 1.195300e-15 0 
    0.067608 1.898271e-05 1.245900e-15 0 
    0.068707 1.960487e-05 1.245900e-15 0 
    0.069663 1.825512e-05 1.128500e-15 0 
    0.070632 1.974100e-05 1.187100e-15 0 
    0.071779 1.804481e-05 1.050700e-15 0 
    0.072778 2.038676e-05 1.154700e-15 0 
    0.073790 2.067090e-05 1.138900e-15 0 
    0.074817 2.091070e-05 1.120700e-15 0 
    0.075858 2.067185e-05 1.077700e-15 0 
    0.076736 2.062319e-05 1.050700e-15 0 
    0.077804 1.880912e-05 9.321500e-16 0 
    0.078886 2.095907e-05 1.010400e-15 0 
    0.079799 1.996903e-05 9.407700e-16 0 
    0.080910 2.100727e-05 9.626900e-16 0 
    0.081846 2.144655e-05 9.604700e-16 0 
    0.082985 2.174530e-05 9.473000e-16 0 
    0.083946 2.199700e-05 9.364500e-16 0 
    0.084918 1.933575e-05 8.044200e-16 0 
    0.085901 2.194632e-05 8.922500e-16 0 
    0.086896 2.184555e-05 8.679300e-16 0 
    0.087902 2.240581e-05 8.699300e-16 0 
    0.088920 2.261335e-05 8.580000e-16 0 
    0.089950 2.277024e-05 8.442800e-16 0 
    0.090991 2.292776e-05 8.307800e-16 0 
    0.092045 2.277011e-05 8.062800e-16 0 
    0.093111 2.308701e-05 7.988900e-16 0 
    0.094189 4.269294e-05 1.443700e-15 0 
    0.095060 6.300180e-05 2.091600e-15 0 
    0.096161 8.153950e-05 2.645400e-15 0 
    0.097051 9.340406e-05 2.975000e-15 0 
    0.098175 1.014756e-04 3.158500e-15 0 
    0.099083 4.969916e-05 1.518700e-15 0 
    0.100231 8.617342e-05 2.573300e-15 0 
    0.101158 8.440471e-05 2.474500e-15 0 
    0.102329 1.031241e-04 2.954500e-15 0 
    0.103276 1.062576e-04 2.988700e-15 0 
    0.104232 7.453640e-05 2.058200e-15 0 
    0.105196 9.646405e-05 2.615100e-15 0 
    0.106414 1.286362e-04 3.407900e-15 0 
    0.107399 1.259995e-04 3.277100e-15 0 
    0.108393 1.097400e-04 2.802100e-15 0 
    0.109396 1.206043e-04 3.023300e-15 0 
    0.110408 1.050406e-04 2.585100e-15 0 
    0.111429 1.259977e-04 3.044300e-15 0 
    0.112461 1.222842e-04 2.900600e-15 0 
    0.113501 1.208806e-04 2.815000e-15 0 
    0.114551 1.094850e-04 2.503100e-15 0 
    0.115345 1.280466e-04 2.887300e-15 0 
    0.116413 1.234134e-04 2.732000e-15 0 
    0.117490 1.254176e-04 2.725700e-15 0 
    0.118577 1.254197e-04 2.676000e-15 0 
    0.119399 9.127719e-05 1.920800e-15 0 
    0.120504 1.225639e-04 2.532100e-15 0 
    0.121619 1.067479e-04 2.165100e-15 0 
    0.122462 9.276108e-05 1.855600e-15 0 
    0.123595 7.436221e-05 1.460400e-15 0 
    0.124738 1.082324e-04 2.086800e-15 0 
    0.125603 1.289329e-04 2.451800e-15 0 
    0.126765 1.343881e-04 2.508900e-15 0 
    0.127644 1.319352e-04 2.429300e-15 0 
    0.128825 1.277496e-04 2.309300e-15 0 
    0.129718 1.436669e-04 2.561400e-15 0 
    0.130617 1.470129e-04 2.585100e-15 0 
    0.131826 1.289339e-04 2.225800e-15 0 
    0.132739 1.301269e-04 2.215600e-15 0 
    0.133660 1.487201e-04 2.497400e-15 0 
    0.134896 1.446656e-04 2.385000e-15 0 
    0.135831 1.359462e-04 2.210500e-15 0 
    0.136773 1.494054e-04 2.396000e-15 0 
    0.137721 1.470138e-04 2.325300e-15 0 
    0.138995 1.381545e-04 2.145300e-15 0 
    0.139959 1.400775e-04 2.145300e-15 0 
    0.140929 1.403973e-04 2.120700e-15 0 
    0.141906 1.133328e-04 1.688400e-15 0 
    0.142889 1.122950e-04 1.650000e-15 0 
    0.143880 1.356359e-04 1.965600e-15 0 
    0.144877 1.343878e-04 1.920800e-15 0 
    0.145881 1.391086e-04 1.961000e-15 0 
    0.146555 1.423515e-04 1.988300e-15 0 
    0.147231 1.436677e-04 1.988300e-15 0 
    0.147911 1.400754e-04 1.920800e-15 0 
    0.148936 1.337718e-04 1.809200e-15 0 
    0.149969 1.356339e-04 1.809200e-15 0 
    0.151008 1.381507e-04 1.817500e-15 0 
    0.152055 1.387937e-04 1.800900e-15 0 
    0.153109 1.337700e-04 1.711900e-15 0 
    0.153815 1.242653e-04 1.575700e-15 0 
    0.154170 1.289356e-04 1.627400e-15 0 
    0.155239 1.286332e-04 1.601300e-15 0 
    0.156315 1.138561e-04 1.397900e-15 0 
    0.157036 1.089821e-04 1.325800e-15 0 
    0.158125 1.084819e-04 1.301600e-15 0 
    0.159221 1.184076e-04 1.401200e-15 0 
    0.160325 1.260015e-04 1.470600e-15 0 
    0.161065 1.298307e-04 1.501400e-15 0 
    0.162181 1.319342e-04 1.504800e-15 0 
    0.163305 1.301246e-04 1.463800e-15 0 
    0.164437 1.298258e-04 1.440400e-15 0 
    0.165196 1.271610e-04 1.397900e-15 0 
    0.166341 1.340763e-04 1.453700e-15 0 
    0.167494 1.356329e-04 1.450400e-15 0 
    0.168267 1.319328e-04 1.397900e-15 0 
    0.169434 1.387930e-04 1.450400e-15 0 
    0.170216 1.283429e-04 1.328900e-15 0 
    0.170608 1.436726e-04 1.480800e-15 0 
    0.171396 1.453358e-04 1.484200e-15 0 
    0.172584 1.400800e-04 1.410900e-15 0 
    0.173380 1.368861e-04 1.366100e-15 0 
    0.174582 1.319329e-04 1.298600e-15 0 
    0.175388 1.310314e-04 1.277900e-15 0 
    0.176604 1.391132e-04 1.338100e-15 0 
    0.177419 1.371999e-04 1.307600e-15 0 
    0.178649 1.433430e-04 1.347400e-15 0 
    0.179473 1.368841e-04 1.274900e-15 0 
    0.180717 1.375146e-04 1.263200e-15 0 
    0.181552 1.407221e-04 1.280800e-15 0 
    0.182390 1.470140e-04 1.325800e-15 0 
    0.183654 1.476984e-04 1.313700e-15 0 
    0.184502 1.384787e-04 1.220400e-15 0 
    0.185780 1.423481e-04 1.237300e-15 0 
    0.186638 1.397530e-04 1.203600e-15 0 
    0.187499 1.304283e-04 1.113000e-15 0 
    0.188799 1.328491e-04 1.118100e-15 0 
    0.189671 1.372090e-04 1.144200e-15 0 
    0.190546 1.443355e-04 1.192600e-15 0 
    0.191867 1.359502e-04 1.107900e-15 0 
    0.192753 1.331589e-04 1.075200e-15 0 
    0.193642 1.407271e-04 1.125900e-15 0 
    0.194984 1.371970e-04 1.082600e-15 0 
    0.195884 1.328516e-04 1.038700e-15 0 
    0.196789 1.362636e-04 1.055600e-15 0 
    0.197697 1.456664e-04 1.118100e-15 0 
    0.199067 1.378383e-04 1.043500e-15 0 
    0.199986 1.507922e-04 1.131100e-15 0 
    0.200909 1.535866e-04 1.141500e-15 0 
    0.201837 1.507855e-04 1.110400e-15 0 
    0.202768 1.490551e-04 1.087600e-15 0 
    0.204174 1.535889e-04 1.105300e-15 0 
    0.205116 1.525271e-04 1.087600e-15 0 
    0.206063 1.539387e-04 1.087600e-15 0 
    0.207014 1.528916e-04 1.070300e-15 0 
    0.207970 1.597279e-04 1.107900e-15 0 
    0.208930 1.473537e-04 1.012700e-15 0 
    0.209894 1.514774e-04 1.031500e-15 0 
    0.210863 1.672557e-04 1.128500e-15 0 
    0.211349 1.964963e-04 1.319700e-15 0 
    0.212324 2.230331e-04 1.484200e-15 0 
    0.213304 2.110377e-04 1.391500e-15 0 
    0.214289 2.105575e-04 1.375600e-15 0 
    0.215278 2.256056e-04 1.460400e-15 0 
    0.216272 2.154547e-04 1.381900e-15 0 
    0.217270 2.076603e-04 1.319700e-15 0 
    0.218273 2.346264e-04 1.477400e-15 0 
    0.219281 2.389783e-04 1.491000e-15 0 
    0.220293 2.215025e-04 1.369300e-15 0 
    0.221309 2.240566e-04 1.372400e-15 0 
    0.222331 2.543064e-04 1.543400e-15 0 
    0.223357 2.560769e-04 1.539900e-15 0 
    0.224388 2.531429e-04 1.508300e-15 0 
    0.225424 2.179497e-04 1.286700e-15 0 
    0.226464 2.378813e-04 1.391500e-15 0 
    0.227510 2.879799e-04 1.669100e-15 0 
    0.228560 2.788380e-04 1.601300e-15 0 
    0.229615 2.362520e-04 1.344300e-15 0 
    0.230144 2.271723e-04 1.286700e-15 0 
    0.231207 2.434239e-04 1.366100e-15 0 
    0.232274 2.987638e-04 1.661300e-15 0 
    0.233346 2.596011e-04 1.430300e-15 0 
    0.234423 3.001229e-04 1.638400e-15 0 
    0.235505 2.668491e-04 1.443400e-15 0 
    0.236592 2.224664e-04 1.192300e-15 0 
    0.237684 2.194026e-04 1.165100e-15 0 
    0.238781 1.824866e-04 9.601800e-16 0 
    0.239332 2.595539e-04 1.359400e-15 0 
    0.240436 1.928524e-04 1.000800e-15 0 
    0.241546 2.219229e-04 1.141100e-15 0 
    0.242661 1.730494e-04 8.816400e-16 0 
    0.243781 1.959538e-04 9.891800e-16 0 
    0.244906 1.959452e-04 9.800700e-16 0 
    0.245471 2.138687e-04 1.064800e-15 0 
    0.246604 3.048583e-04 1.503900e-15 0 
    0.247742 3.090900e-04 1.510800e-15 0 
    0.248886 3.581616e-04 1.734600e-15 0 
    0.249460 3.785054e-04 1.824700e-15 0 
    0.250611 3.319291e-04 1.585500e-15 0 
    0.251768 3.048076e-04 1.442600e-15 0 
    0.252930 2.182779e-04 1.023600e-15 0 
    0.253513 2.421007e-04 1.130100e-15 0 
    0.254683 3.507382e-04 1.622200e-15 0 
    0.255859 2.018228e-04 9.248900e-16 0 
    0.257040 1.914057e-04 8.691100e-16 0 
    0.257632 2.666475e-04 1.205200e-15 0 
    0.258821 2.779122e-04 1.244600e-15 0 
    0.260016 4.719511e-04 2.094200e-15 0 
    0.261216 3.629810e-04 1.595900e-15 0 
    0.261818 4.559172e-04 1.995300e-15 0 
    0.263027 4.119629e-04 1.786400e-15 0 
    0.264241 3.783026e-04 1.625400e-15 0 
    0.264850 3.371662e-04 1.442000e-15 0 
    0.266072 3.131940e-04 1.327200e-15 0 
    0.267301 4.071926e-04 1.709700e-15 0 
    0.267917 6.914999e-04 2.890100e-15 0 
    0.269154 9.199648e-04 3.809700e-15 0 
    0.269774 1.311460e-03 5.406000e-15 0 
    0.271019 8.217486e-04 3.356300e-15 0 
    0.272270 9.412901e-04 3.809300e-15 0 
    0.272898 1.105879e-03 4.454800e-15 0 
    0.274157 8.029563e-04 3.204900e-15 0 
    0.275423 1.013132e-03 4.006700e-15 0 
    0.276058 7.339341e-04 2.889200e-15 0 
    0.277332 5.736431e-04 2.237500e-15 0 
    0.277971 7.372643e-04 2.862500e-15 0 
    0.279254 4.421885e-04 1.701100e-15 0 
    0.280543 5.937195e-04 2.263100e-15 0 
    0.281190 7.754971e-04 2.942400e-15 0 
    0.282488 8.290100e-04 3.116600e-15 0 
    0.283139 5.135007e-04 1.921600e-15 0 
    0.284446 2.719639e-04 1.008400e-15 0 
    0.285102 3.173294e-04 1.171200e-15 0 
    0.286418 7.507594e-04 2.745500e-15 0 
    0.287078 1.092669e-03 3.977500e-15 0 
    0.288403 1.033881e-03 3.729000e-15 0 
    0.289734 7.369602e-04 2.633700e-15 0 
    0.290402 4.399951e-04 1.565200e-15 0 
    0.291743 1.050562e-03 3.702900e-15 0 
    0.292415 1.487329e-03 5.218300e-15 0 
    0.293765 1.353294e-03 4.704500e-15 0 
    0.294442 1.715455e-03 5.936100e-15 0 
    0.295801 2.378814e-03 8.156100e-15 0 
    0.297852 2.081273e-03 7.038000e-15 0 
    0.299916 1.928819e-03 6.433000e-15 0 
    0.301995 2.047675e-03 6.735700e-15 0 
    0.304089 2.104897e-03 6.828900e-15 0 
    0.306196 2.129105e-03 6.812700e-15 0 
    0.308319 2.334371e-03 7.367000e-15 0 
    0.310456 2.466793e-03 7.678100e-15 0 
    0.312608 2.780372e-03 8.535400e-15 0 
    0.314051 2.723186e-03 8.283200e-15 0 
    0.316228 3.281305e-03 9.843900e-15 0 
    0.318420 3.047991e-03 9.018500e-15 0 
    0.320627 3.111567e-03 9.080300e-15 0 
    0.322107 3.482986e-03 1.007100e-14 0 
    0.324340 3.012475e-03 8.591000e-15 0 
    0.326588 3.395370e-03 9.550100e-15 0 
    0.328852 2.869808e-03 7.961100e-15 0 
    0.330370 4.195872e-03 1.153300e-14 0 
    0.332660 5.021135e-03 1.361200e-14 0 
    0.334966 4.986266e-03 1.333200e-14 0 
    0.336512 4.663614e-03 1.235500e-14 0 
    0.338065 4.453420e-03 1.169000e-14 0 
    0.338844 4.663413e-03 1.218500e-14 0 
    0.339625 4.194718e-03 1.091000e-14 0 
    0.340408 4.962266e-03 1.284700e-14 0 
    0.341193 4.815604e-03 1.241000e-14 0 
    0.341979 4.412120e-03 1.131800e-14 0 
    0.342768 4.525319e-03 1.155500e-14 0 
    0.343558 4.401810e-03 1.118800e-14 0 
    0.344350 4.462840e-03 1.129100e-14 0 
    0.345144 5.018710e-03 1.263900e-14 0 
    0.345939 5.618285e-03 1.408400e-14 0 
    0.346737 5.041901e-03 1.258100e-14 0 
    0.347536 4.493466e-03 1.116100e-14 0 
    0.348337 5.735274e-03 1.418000e-14 0 
    0.349140 6.088842e-03 1.498500e-14 0 
    0.349945 5.230330e-03 1.281300e-14 0 
    0.350752 4.183327e-03 1.020100e-14 0 
    0.351560 5.087559e-03 1.234900e-14 0 
    0.352371 4.251007e-03 1.027100e-14 0 
    0.353183 5.463535e-03 1.314000e-14 0 
    0.353997 4.097012e-03 9.808200e-15 0 
    0.354813 4.903084e-03 1.168400e-14 0 
    0.355631 4.585926e-03 1.087800e-14 0 
    0.356451 6.186421e-03 1.460700e-14 0 
    0.357273 5.628675e-03 1.322900e-14 0 
    0.358096 6.271863e-03 1.467300e-14 0 
    0.358922 4.077483e-03 9.495400e-15 0 
    0.359749 5.893757e-03 1.366200e-14 0 
    0.359950 7.513416e-03 1.739700e-14 1 
    0.360225 6.651171e-03 1.537700e-14 1 
    0.360500 6.247622e-03 1.442200e-14 1 
    0.360775 7.580437e-03 1.747200e-14 1 
    0.361050 7.654135e-03 1.761500e-14 1 
    0.361325 6.103481e-03 1.402500e-14 1 
    0.361600 6.278834e-03 1.440600e-14 1 
    0.361875 6.492239e-03 1.487300e-14 1 
    0.362150 6.163736e-03 1.409900e-14 1 
    0.362425 5.201972e-03 1.188100e-14 1 
    0.362700 5.947434e-03 1.356300e-14 1 
    0.362975 5.942402e-03 1.353100e-14 1 
    0.363250 5.080096e-03 1.155000e-14 1 
    0.363525 5.753389e-03 1.306100e-14 1 
    0.363800 6.309145e-03 1.430100e-14 1 
    0.364075 5.125732e-03 1.160100e-14 1 
    0.364350 5.083033e-03 1.148700e-14 1 
    0.364625 4.534972e-03 1.023300e-14 1 
    0.364900 4.330458e-03 9.756800e-15 1 
    0.365175 4.905604e-03 1.103600e-14 1 
    0.365450 6.030840e-03 1.354700e-14 1 
    0.365725 6.996712e-03 1.569300e-14 1 
    0.366000 6.675027e-03 1.494900e-14 1 
    0.366275 6.295111e-03 1.407700e-14 1 
    0.366550 6.547309e-03 1.461900e-14 1 
    0.366825 5.848003e-03 1.303800e-14 1 
    0.367100 6.160439e-03 1.371400e-14 1 
    0.367375 6.279443e-03 1.395800e-14 1 
    0.367650 5.900919e-03 1.309700e-14 1 
    0.367925 5.882677e-03 1.303700e-14 1 
    0.368200 6.615425e-03 1.463900e-14 1 
    0.368475 6.834402e-03 1.510100e-14 1 
    0.368750 7.127891e-03 1.572600e-14 1 
    0.369025 7.628319e-03 1.680500e-14 1 
    0.369300 7.053703e-03 1.551600e-14 1 
    0.369575 6.971789e-03 1.531300e-14 1 
    0.369850 6.721357e-03 1.474100e-14 1 
    0.370125 7.230922e-03 1.583500e-14 1 
    0.370400 7.098529e-03 1.552200e-14 1 
    0.370675 6.803588e-03 1.485500e-14 1 
    0.370950 6.392619e-03 1.393700e-14 1 
    0.371225 6.999728e-03 1.523800e-14 1 
    0.371500 7.033565e-03 1.528900e-14 1 
    0.371775 8.078763e-03 1.753500e-14 1 
    0.372050 7.797727e-03 1.690000e-14 1 
    0.372325 7.889200e-03 1.707300e-14 1 
    0.372600 9.123958e-03 1.971600e-14 1 
    0.372875 8.119225e-03 1.751900e-14 1 
    0.373150 7.956690e-03 1.714300e-14 1 
    0.373425 7.796904e-03 1.677400e-14 1 
    0.373700 7.565398e-03 1.625200e-14 1 
    0.373975 7.259060e-03 1.557100e-14 1 
    0.374250 7.596553e-03 1.627100e-14 1 
    0.374525 7.620813e-03 1.629900e-14 1 
    0.374800 7.279417e-03 1.554600e-14 1 
    0.375075 7.490808e-03 1.597400e-14 1 
    0.375350 7.989737e-03 1.701300e-14 1 
    0.375625 8.913857e-03 1.895300e-14 1 
    0.375900 9.008398e-03 1.912600e-14 1 
    0.376175 9.158374e-03 1.941600e-14 1 
    0.376450 8.774024e-03 1.857400e-14 1 
    0.376725 7.883279e-03 1.666400e-14 1 
    0.377000 7.853101e-03 1.657600e-14 1 
    0.377275 7.488794e-03 1.578400e-14 1 
    0.377550 7.528699e-03 1.584500e-14 1 
    0.377825 8.028833e-03 1.687300e-14 1 
    0.378100 8.253058e-03 1.731900e-14 1 
    0.378375 7.443286e-03 1.559700e-14 1 
    0.378650 6.230636e-03 1.303700e-14 1 
    0.378925 6.968139e-03 1.455900e-14 1 
    0.379200 7.318566e-03 1.526900e-14 1 
    0.379475 6.621179e-03 1.379400e-14 1 
    0.379750 6.035672e-03 1.255600e-14 1 
    0.380025 6.169579e-03 1.281600e-14 1 
    0.380300 5.685812e-03 1.179400e-14 1 
    0.380575 6.601686e-03 1.367400e-14 1 
    0.380850 6.248130e-03 1.292300e-14 1 
    0.381125 6.406286e-03 1.323100e-14 1 
    0.381400 6.267159e-03 1.292500e-14 1 
    0.381675 6.929799e-03 1.427100e-14 1 
    0.381950 7.303530e-03 1.501900e-14 1 
    0.382225 7.012606e-03 1.440000e-14 1 
    0.382500 6.816408e-03 1.397700e-14 1 
    0.382775 7.452328e-03 1.525900e-14 1 
    0.383050 7.609767e-03 1.555900e-14 1 
    0.383325 7.638330e-03 1.559500e-14 1 
    0.383600 8.092212e-03 1.649800e-14 1 
    0.383875 8.613684e-03 1.753600e-14 1 
    0.384150 8.970362e-03 1.823600e-14 1 
    0.384425 8.952669e-03 1.817400e-14 1 
    0.384700 8.894444e-03 1.803000e-14 1 
    0.384975 9.054383e-03 1.832800e-14 1 
    0.385250 8.321279e-03 1.682000e-14 1 
    0.385525 7.704459e-03 1.555100e-14 1 
    0.385800 7.629623e-03 1.537800e-14 1 
    0.386075 7.043294e-03 1.417600e-14 1 
    0.386350 6.751316e-03 1.356900e-14 1 
    0.386625 7.350375e-03 1.475200e-14 1 
    0.386900 7.941140e-03 1.591500e-14 1 
    0.387175 8.581032e-03 1.717300e-14 1 
    0.387450 8.303500e-03 1.659400e-14 1 
    0.387725 7.301561e-03 1.457100e-14 1 
    0.388000 7.255719e-03 1.445900e-14 1 
    0.388275 7.589131e-03 1.510200e-14 1 
    0.388550 6.691039e-03 1.329600e-14 1 
    0.388825 6.090735e-03 1.208600e-14 1 
    0.389100 6.160418e-03 1.220700e-14 1 
    0.389375 5.261472e-03 1.041100e-14 1 
    0.389650 4.833113e-03 9.549900e-15 1 
    0.389925 5.320439e-03 1.049800e-14 1 
    0.390200 5.539583e-03 1.091500e-14 1 
    0.390475 5.388315e-03 1.060200e-14 1 
    0.390750 5.130235e-03 1.008000e-14 1 
    0.391025 6.407042e-03 1.257100e-14 1 
    0.391300 6.230277e-03 1.220700e-14 1 
    0.391575 6.592210e-03 1.289800e-14 1 
    0.391850 6.625528e-03 1.294500e-14 1 
    0.392125 6.737339e-03 1.314500e-14 1 
    0.392400 6.210437e-03 1.210000e-14 1 
    0.392675 6.612338e-03 1.286500e-14 1 
    0.392950 6.799174e-03 1.321000e-14 1 
    0.393225 6.514905e-03 1.264000e-14 1 
    0.393500 7.345716e-03 1.423200e-14 1 
    0.393775 7.135287e-03 1.380500e-14 1 
    0.394050 7.087805e-03 1.369400e-14 1 
    0.394325 7.086816e-03 1.367300e-14 1 
    0.394600 6.877155e-03 1.325000e-14 1 
    0.394875 6.736535e-03 1.296100e-14 1 
    0.395150 6.931211e-03 1.331700e-14 1 
    0.395425 7.401606e-03 1.420100e-14 1 
    0.395700 8.322147e-03 1.594500e-14 1 
    0.395975 8.782678e-03 1.680400e-14 1 
    0.396250 9.183753e-03 1.754700e-14 1 
    0.396525 9.123653e-03 1.740800e-14 1 
    0.396800 9.181973e-03 1.749500e-14 1 
    0.397075 9.353424e-03 1.779700e-14 1 
    0.397350 9.534797e-03 1.811700e-14 1 
    0.397625 1.009873e-02 1.916200e-14 1 
    0.397900 1.030798e-02 1.953200e-14 1 
    0.398175 1.050825e-02 1.988400e-14 1 
    0.398450 1.021001e-02 1.929300e-14 1 
    0.398725 9.585002e-03 1.808700e-14 1 
    0.399000 8.708825e-03 1.641100e-14 1 
    0.399275 7.306243e-03 1.374900e-14 1 
    0.399550 6.793223e-03 1.276600e-14 1 
    0.399825 5.489061e-03 1.030100e-14 1 
    0.400100 4.225205e-03 7.918300e-15 1 
    0.400375 4.677345e-03 8.753600e-15 1 
    0.400650 5.501035e-03 1.028100e-14 1 
    0.400925 6.441958e-03 1.202300e-14 1 
    0.401200 8.024464e-03 1.495600e-14 1 
    0.401475 9.102495e-03 1.694200e-14 1 
    0.401750 9.949961e-03 1.849400e-14 1 
    0.402025 1.010258e-02 1.875200e-14 1 
    0.402300 1.005868e-02 1.864500e-14 1 
    0.402575 9.332877e-03 1.727600e-14 1 
    0.402850 8.890143e-03 1.643400e-14 1 
    0.403125 7.606541e-03 1.404200e-14 1 
    0.403400 6.513602e-03 1.200800e-14 1 
    0.403675 5.952148e-03 1.095800e-14 1 
    0.403950 6.384517e-03 1.173800e-14 1 
    0.404225 7.430790e-03 1.364300e-14 1 
    0.404500 8.984934e-03 1.647400e-14 1 
    0.404775 1.090101e-02 1.996000e-14 1 
    0.405050 1.183350e-02 2.163800e-14 1 
    0.405325 1.268744e-02 2.316800e-14 1 
    0.405600 1.342303e-02 2.447800e-14 1 
    0.405875 1.307278e-02 2.380700e-14 1 
    0.406150 1.371844e-02 2.494900e-14 1 
    0.406425 1.378493e-02 2.503600e-14 1 
    0.406700 1.360180e-02 2.467000e-14 1 
    0.406975 1.415186e-02 2.563300e-14 1 
    0.407250 1.483993e-02 2.684300e-14 1 
    0.407525 1.469169e-02 2.653900e-14 1 
    0.407800 1.544325e-02 2.785900e-14 1 
    0.408075 1.639163e-02 2.953000e-14 1 
    0.408350 1.597462e-02 2.874000e-14 1 
    0.408625 1.580246e-02 2.839200e-14 1 
    0.408900 1.581370e-02 2.837400e-14 1 
    0.409175 1.592316e-02 2.853200e-14 1 
    0.409450 1.569700e-02 2.808900e-14 1 
    0.409725 1.538459e-02 2.749300e-14 1 
    0.410000 1.485668e-02 2.651400e-14 1 
    0.410275 1.504382e-02 2.681200e-14 1 
    0.410550 1.537525e-02 2.736600e-14 1 
    0.410825 1.552694e-02 2.759900e-14 1 
    0.411100 1.499903e-02 2.662500e-14 1 
    0.411375 1.457234e-02 2.583300e-14 1 
    0.411650 1.472457e-02 2.606800e-14 1 
    0.411925 1.478950e-02 2.614800e-14 1 
    0.412200 1.547303e-02 2.732000e-14 1 
    0.412475 1.537119e-02 2.710400e-14 1 
    0.412750 1.480337e-02 2.606800e-14 1 
    0.413025 1.461044e-02 2.569400e-14 1 
    0.413300 1.450634e-02 2.547700e-14 1 
    0.413575 1.441903e-02 2.529000e-14 1 
    0.413850 1.469512e-02 2.574000e-14 1 
    0.414125 1.489130e-02 2.604900e-14 1 
    0.414400 1.469700e-02 2.567500e-14 1 
    0.414675 1.512003e-02 2.637900e-14 1 
    0.414950 1.546093e-02 2.693800e-14 1 
    0.415225 1.596936e-02 2.778700e-14 1 
    0.415500 1.657692e-02 2.880600e-14 1 
    0.415775 1.697111e-02 2.945200e-14 1 
    0.416050 1.674488e-02 2.902100e-14 1 
    0.416325 1.664801e-02 2.881500e-14 1 
    0.416600 1.638133e-02 2.831600e-14 1 
    0.416875 1.507293e-02 2.602000e-14 1 
    0.417150 1.435733e-02 2.475200e-14 1 
    0.417425 1.495127e-02 2.574200e-14 1 
    0.417700 1.567759e-02 2.695700e-14 1 
    0.417975 1.564525e-02 2.686600e-14 1 
    0.418250 1.543201e-02 2.646500e-14 1 
    0.418525 1.609341e-02 2.756300e-14 1 
    0.418800 1.641215e-02 2.807200e-14 1 
    0.419075 1.656074e-02 2.828900e-14 1 
    0.419350 1.630346e-02 2.781300e-14 1 
    0.419625 1.610064e-02 2.743100e-14 1 
    0.419900 1.622343e-02 2.760400e-14 1 
    0.420175 1.612463e-02 2.740000e-14 1 
    0.420450 1.581870e-02 2.684500e-14 1 
    0.420725 1.610197e-02 2.729000e-14 1 
    0.421000 1.658031e-02 2.806400e-14 1 
    0.421275 1.651087e-02 2.791000e-14 1 
    0.421550 1.557875e-02 2.630000e-14 1 
    0.421825 1.511806e-02 2.548900e-14 1 
    0.422100 1.508017e-02 2.539200e-14 1 
    0.422375 1.558567e-02 2.620900e-14 1 
    0.422650 1.586142e-02 2.663800e-14 1 
    0.422925 1.604543e-02 2.691200e-14 1 
    0.423200 1.639585e-02 2.746400e-14 1 
    0.423475 1.645602e-02 2.752900e-14 1 
    0.423750 1.639779e-02 2.739600e-14 1 
    0.424025 1.630161e-02 2.720000e-14 1 
    0.424300 1.563685e-02 2.605700e-14 1 
    0.424575 1.548107e-02 2.576400e-14 1 
    0.424850 1.532304e-02 2.546800e-14 1 
    0.425125 1.550976e-02 2.574500e-14 1 
    0.425400 1.587065e-02 2.631000e-14 1 
    0.425675 1.646859e-02 2.726600e-14 1 
    0.425950 1.636469e-02 2.705900e-14 1 
    0.426225 1.637008e-02 2.703300e-14 1 
    0.426500 1.657736e-02 2.734000e-14 1 
    0.426775 1.625633e-02 2.677600e-14 1 
    0.427050 1.570889e-02 2.584100e-14 1 
    0.427325 1.607912e-02 2.641600e-14 1 
    0.427600 1.637287e-02 2.686400e-14 1 
    0.427875 1.734350e-02 2.842000e-14 1 
    0.428150 1.779841e-02 2.912800e-14 1 
    0.428425 1.747377e-02 2.856000e-14 1 
    0.428700 1.769224e-02 2.888000e-14 1 
    0.428975 1.751989e-02 2.856200e-14 1 
    0.429250 1.731572e-02 2.819300e-14 1 
    0.429525 1.710669e-02 2.781700e-14 1 
    0.429800 1.630718e-02 2.648300e-14 1 
    0.430075 1.603889e-02 2.601400e-14 1 
    0.430350 1.617917e-02 2.620800e-14 1 
    0.430625 1.670424e-02 2.702400e-14 1 
    0.430900 1.734636e-02 2.802700e-14 1 
    0.431175 1.834021e-02 2.959500e-14 1 
    0.431450 1.858016e-02 2.994400e-14 1 
    0.431725 1.906485e-02 3.068600e-14 1 
    0.432000 1.849008e-02 2.972300e-14 1 
    0.432275 1.808074e-02 2.902800e-14 1 
    0.432550 1.812932e-02 2.906900e-14 1 
    0.432825 1.802124e-02 2.885900e-14 1 
    0.433100 1.819734e-02 2.910400e-14 1 
    0.433375 1.845209e-02 2.947400e-14 1 
    0.433650 1.920265e-02 3.063400e-14 1 
    0.433925 1.894520e-02 3.018500e-14 1 
    0.434200 1.826852e-02 2.907000e-14 1 
    0.434475 1.754792e-02 2.788800e-14 1 
    0.434750 1.744603e-02 2.769100e-14 1 
    0.435025 1.753119e-02 2.779100e-14 1 
    0.435300 1.822603e-02 2.885600e-14 1 
    0.435575 1.829271e-02 2.892500e-14 1 
    0.435850 1.788396e-02 2.824300e-14 1 
    0.436125 1.726618e-02 2.723300e-14 1 
    0.436400 1.702134e-02 2.681300e-14 1 
    0.436675 1.636968e-02 2.575400e-14 1 
    0.436950 1.653477e-02 2.598100e-14 1 
    0.437225 1.531110e-02 2.402800e-14 1 
    0.437500 1.454751e-02 2.280100e-14 1 
    0.437775 1.441313e-02 2.256200e-14 1 
    0.438050 1.388244e-02 2.170400e-14 1 
    0.438325 1.421945e-02 2.220300e-14 1 
    0.438600 1.572496e-02 2.452300e-14 1 
    0.438875 1.771381e-02 2.759000e-14 1 
    0.439150 1.998919e-02 3.109500e-14 1 
    0.439425 2.094559e-02 3.254200e-14 1 
    0.439700 2.020813e-02 3.135700e-14 1 
    0.439975 1.991659e-02 3.086600e-14 1 
    0.440250 2.055914e-02 3.182200e-14 1 
    0.440525 2.100336e-02 3.246900e-14 1 
    0.440800 2.178349e-02 3.363300e-14 1 
    0.441075 2.124649e-02 3.276300e-14 1 
    0.441350 2.039255e-02 3.140700e-14 1 
    0.441625 2.007406e-02 3.087800e-14 1 
    0.441900 2.040305e-02 3.134500e-14 1 
    0.442175 2.071782e-02 3.178900e-14 1 
    0.442450 2.150772e-02 3.296000e-14 1 
    0.442725 2.095951e-02 3.208000e-14 1 
    0.443000 2.222258e-02 3.397100e-14 1 
    0.443275 2.204583e-02 3.365900e-14 1 
    0.443550 2.256110e-02 3.440300e-14 1 
    0.443825 2.313537e-02 3.523500e-14 1 
    0.444100 2.305689e-02 3.507200e-14 1 
    0.444375 2.246080e-02 3.412300e-14 1 
    0.444650 2.210834e-02 3.354600e-14 1 
    0.444925 2.204001e-02 3.340100e-14 1 
    0.445200 2.135902e-02 3.232900e-14 1 
    0.445475 2.068357e-02 3.126800e-14 1 
    0.445750 2.059520e-02 3.109600e-14 1 
    0.446025 1.946412e-02 2.935200e-14 1 
    0.446300 1.976898e-02 2.977500e-14 1 
    0.446575 2.037701e-02 3.065300e-14 1 
    0.446850 2.161747e-02 3.247900e-14 1 
    0.447125 2.184001e-02 3.277300e-14 1 
    0.447400 2.246205e-02 3.366500e-14 1 
    0.447675 2.218304e-02 3.320600e-14 1 
    0.447950 2.172470e-02 3.248000e-14 1 
    0.448225 2.202863e-02 3.289400e-14 1 
    0.448500 2.243049e-02 3.345300e-14 1 
    0.448775 2.284133e-02 3.402400e-14 1 
    0.449050 2.417062e-02 3.596000e-14 1 
    0.449325 2.421370e-02 3.598000e-14 1 
    0.449600 2.413082e-02 3.581300e-14 1 
    0.449875 2.466901e-02 3.656700e-14 1 
    0.450150 2.474376e-02 3.663300e-14 1 
    0.450425 2.509659e-02 3.711000e-14 1 
    0.450700 2.455509e-02 3.626500e-14 1 
    0.450975 2.382918e-02 3.515000e-14 1 
    0.451250 2.461166e-02 3.626000e-14 1 
    0.451525 2.518466e-02 3.705900e-14 1 
    0.451800 2.585221e-02 3.799500e-14 1 
    0.452075 2.520858e-02 3.700400e-14 1 
    0.452350 2.575354e-02 3.775800e-14 1 
    0.452625 2.589754e-02 3.792300e-14 1 
    0.452900 2.565689e-02 3.752500e-14 1 
    0.453175 2.528417e-02 3.693500e-14 1 
    0.453450 2.425046e-02 3.538200e-14 1 
    0.453725 2.442673e-02 3.559600e-14 1 
    0.454000 2.413069e-02 3.512200e-14 1 
    0.454275 2.521377e-02 3.665400e-14 1 
    0.454550 2.573054e-02 3.736000e-14 1 
    0.454825 2.682635e-02 3.890400e-14 1 
    0.455100 2.710320e-02 3.925800e-14 1 
    0.455375 2.794677e-02 4.043100e-14 1 
    0.455650 2.803659e-02 4.051200e-14 1 
    0.455925 2.802818e-02 4.045100e-14 1 
    0.456200 2.770889e-02 3.994200e-14 1 
    0.456475 2.785691e-02 4.010700e-14 1 
    0.456750 2.821106e-02 4.056800e-14 1 
    0.457025 2.780850e-02 3.994100e-14 1 
    0.457300 2.703685e-02 3.878600e-14 1 
    0.457575 2.783360e-02 3.988100e-14 1 
    0.457850 2.866714e-02 4.102600e-14 1 
    0.458125 2.932912e-02 4.192300e-14 1 
    0.458400 2.973908e-02 4.245800e-14 1 
    0.458675 2.955457e-02 4.214400e-14 1 
    0.458950 2.935060e-02 4.180300e-14 1 
    0.459225 2.932252e-02 4.171300e-14 1 
    0.459500 2.980808e-02 4.235300e-14 1 
    0.459775 2.912855e-02 4.133800e-14 1 
    0.460050 2.842124e-02 4.028600e-14 1 
    0.460325 2.695851e-02 3.816700e-14 1 
    0.460600 2.674039e-02 3.781300e-14 1 
    0.460875 2.660736e-02 3.758000e-14 1 
    0.461150 2.635345e-02 3.717700e-14 1 
    0.461425 2.675749e-02 3.770200e-14 1 
    0.461700 2.791705e-02 3.928900e-14 1 
    0.461975 2.855785e-02 4.014300e-14 1 
    0.462250 2.859257e-02 4.014400e-14 1 
    0.462525 2.841125e-02 3.984200e-14 1 
    0.462800 2.840006e-02 3.977900e-14 1 
    0.463075 2.840880e-02 3.974400e-14 1 
    0.463350 2.899718e-02 4.051900e-14 1 
    0.463625 3.014863e-02 4.207800e-14 1 
    0.463900 3.059329e-02 4.264800e-14 1 
    0.464175 3.019506e-02 4.204300e-14 1 
    0.464450 3.069751e-02 4.269200e-14 1 
    0.464725 3.065829e-02 4.258700e-14 1 
    0.465000 3.011077e-02 4.177700e-14 1 
    0.465275 3.019330e-02 4.184200e-14 1 
    0.465550 2.983888e-02 4.130200e-14 1 
    0.465825 3.009909e-02 4.161300e-14 1 
    0.466100 3.007526e-02 4.153100e-14 1 
    0.466375 2.967719e-02 4.093300e-14 1 
    0.466650 2.994739e-02 4.125700e-14 1 
    0.466925 3.001467e-02 4.130100e-14 1 
    0.467200 3.018391e-02 4.148500e-14 1 
    0.467475 2.988292e-02 4.102300e-14 1 
    0.467750 2.964387e-02 4.064700e-14 1 
    0.468025 3.022270e-02 4.139200e-14 1 
    0.468300 3.047095e-02 4.168300e-14 1 
    0.468575 3.099052e-02 4.234400e-14 1 
    0.468850 3.172300e-02 4.329400e-14 1 
    0.469125 3.196931e-02 4.357900e-14 1 
    0.469400 3.261933e-02 4.441300e-14 1 
    0.469675 3.246712e-02 4.415400e-14 1 
    0.469950 3.227472e-02 4.384100e-14 1 
    0.470225 3.273040e-02 4.440800e-14 1 
    0.470500 3.326678e-02 4.508300e-14 1 
    0.470775 3.322072e-02 4.496800e-14 1 
    0.471050 3.252806e-02 4.397900e-14 1 
    0.471325 3.140866e-02 4.241600e-14 1 
    0.471600 3.116212e-02 4.203400e-14 1 
    0.471875 3.098472e-02 4.174600e-14 1 
    0.472150 3.083730e-02 4.149900e-14 1 
    0.472425 3.030188e-02 4.073100e-14 1 
    0.472700 2.983441e-02 4.005600e-14 1 
    0.472975 3.047314e-02 4.086600e-14 1 
    0.473250 3.047275e-02 4.081800e-14 1 
    0.473525 3.088637e-02 4.132400e-14 1 
    0.473800 3.121409e-02 4.171400e-14 1 
    0.474075 3.131027e-02 4.179400e-14 1 
    0.474350 3.133085e-02 4.177300e-14 1 
    0.474625 3.069964e-02 4.088400e-14 1 
    0.474900 2.970456e-02 3.951300e-14 1 
    0.475175 2.975252e-02 3.953100e-14 1 
    0.475450 3.054198e-02 4.053300e-14 1 
    0.475725 3.049585e-02 4.042500e-14 1 
    0.476000 3.097143e-02 4.100800e-14 1 
    0.476275 3.074485e-02 4.066100e-14 1 
    0.476550 3.046318e-02 4.024200e-14 1 
    0.476825 3.108115e-02 4.101100e-14 1 
    0.477100 3.086511e-02 4.067900e-14 1 
    0.477375 3.090146e-02 4.068000e-14 1 
    0.477650 3.117435e-02 4.099200e-14 1 
    0.477925 3.073440e-02 4.036700e-14 1 
    0.478200 2.993740e-02 3.927500e-14 1 
    0.478475 3.004816e-02 3.937500e-14 1 
    0.478750 3.037074e-02 3.975200e-14 1 
    0.479025 3.074065e-02 4.019000e-14 1 
    0.479300 3.066033e-02 4.003900e-14 1 
    0.479575 3.169369e-02 4.134100e-14 1 
    0.479850 3.230492e-02 4.209000e-14 1 
    0.480125 3.298895e-02 4.293200e-14 1 
    0.480400 3.312599e-02 4.306100e-14 1 
    0.480675 3.305918e-02 4.292500e-14 1 
    0.480950 3.280094e-02 4.254100e-14 1 
    0.481225 3.239615e-02 4.196800e-14 1 
    0.481500 3.201819e-02 4.143100e-14 1 
    0.481775 3.199442e-02 4.135300e-14 1 
    0.482050 3.290158e-02 4.247700e-14 1 
    0.482325 3.378360e-02 4.356600e-14 1 
    0.482600 3.421574e-02 4.407300e-14 1 
    0.482875 3.391277e-02 4.363300e-14 1 
    0.483150 3.415839e-02 4.389900e-14 1 
    0.483425 3.437567e-02 4.412800e-14 1 
    0.483700 3.388837e-02 4.345300e-14 1 
    0.483975 3.374109e-02 4.321500e-14 1 
    0.484250 3.328387e-02 4.258100e-14 1 
    0.484525 3.275512e-02 4.185700e-14 1 
    0.484800 3.256590e-02 4.156800e-14 1 
    0.485075 3.268835e-02 4.167700e-14 1 
    0.485350 3.348630e-02 4.264600e-14 1 
    0.485625 3.345901e-02 4.256300e-14 1 
    0.485900 3.355200e-02 4.263300e-14 1 
    0.486175 3.414230e-02 4.333400e-14 1 
    0.486450 3.372502e-02 4.275600e-14 1 
    0.486725 3.312195e-02 4.194400e-14 1 
    0.487000 3.310168e-02 4.187100e-14 1 
    0.487275 3.374929e-02 4.264200e-14 1 
    0.487550 3.426676e-02 4.324700e-14 1 
    0.487825 3.462669e-02 4.365200e-14 1 
    0.488100 3.522085e-02 4.435100e-14 1 
    0.488375 3.487893e-02 4.387100e-14 1 
    0.488650 3.508298e-02 4.407800e-14 1 
    0.488925 3.511371e-02 4.406700e-14 1 
    0.489200 3.496097e-02 4.382600e-14 1 
    0.489475 3.551061e-02 4.446500e-14 1 
    0.489750 3.549535e-02 4.439600e-14 1 
    0.490025 3.549600e-02 4.434700e-14 1 
    0.490300 3.566567e-02 4.450900e-14 1 
    0.490575 3.546502e-02 4.420900e-14 1 
    0.490850 3.492977e-02 4.349300e-14 1 
    0.491125 3.475586e-02 4.322800e-14 1 
    0.491400 3.476340e-02 4.318900e-14 1 
    0.491675 3.432286e-02 4.259400e-14 1 
    0.491950 3.496630e-02 4.334400e-14 1 
    0.492225 3.496987e-02 4.330000e-14 1 
    0.492500 3.489738e-02 4.316200e-14 1 
    0.492775 3.507072e-02 4.332800e-14 1 
    0.493050 3.458964e-02 4.268600e-14 1 
    0.493325 3.435080e-02 4.234400e-14 1 
    0.493600 3.374509e-02 4.155100e-14 1 
    0.493875 3.307291e-02 4.067800e-14 1 
    0.494150 3.166662e-02 3.890500e-14 1 
    0.494425 3.166929e-02 3.886500e-14 1 
    0.494700 3.098339e-02 3.798100e-14 1 
    0.494975 3.128653e-02 3.831000e-14 1 
    0.495250 3.159029e-02 3.863900e-14 1 
    0.495525 3.248069e-02 3.968400e-14 1 
    0.495800 3.304445e-02 4.032800e-14 1 
    0.496075 3.310572e-02 4.035800e-14 1 
    0.496350 3.381255e-02 4.117400e-14 1 
    0.496625 3.385331e-02 4.117800e-14 1 
    0.496900 3.384390e-02 4.112100e-14 1 
    0.497175 3.404040e-02 4.131400e-14 1 
    0.497450 3.425870e-02 4.153300e-14 1 
    0.497725 3.448982e-02 4.176700e-14 1 
    0.498000 3.524385e-02 4.263300e-14 1 
    0.498275 3.613934e-02 4.366800e-14 1 
    0.498550 3.649325e-02 4.404700e-14 1 
    0.498825 3.665213e-02 4.419000e-14 1 
    0.499100 3.605485e-02 4.342200e-14 1 
    0.499375 3.572552e-02 4.297800e-14 1 
    0.499650 3.550857e-02 4.267000e-14 1 
    0.499925 3.540355e-02 4.249700e-14 1 
    0.500200 3.498631e-02 4.195000e-14 1 
    0.500475 3.438607e-02 4.118500e-14 1 
    0.500750 3.430853e-02 4.104700e-14 1 
    0.501025 3.479891e-02 4.158800e-14 1 
    0.501300 3.564714e-02 4.255500e-14 1 
    0.501575 3.658524e-02 4.362700e-14 1 
    0.501850 3.630383e-02 4.324400e-14 1 
    0.502125 3.617891e-02 4.304800e-14 1 
    0.502400 3.640112e-02 4.326500e-14 1 
    0.502675 3.637612e-02 4.318800e-14 1 
    0.502950 3.756100e-02 4.454600e-14 1 
    0.503225 3.805875e-02 4.508700e-14 1 
    0.503500 3.823134e-02 4.524200e-14 1 
    0.503775 3.795841e-02 4.487000e-14 1 
    0.504050 3.727239e-02 4.401100e-14 1 
    0.504325 3.651358e-02 4.306800e-14 1 
    0.504600 3.640743e-02 4.289600e-14 1 
    0.504875 3.591524e-02 4.227000e-14 1 
    0.505150 3.596118e-02 4.227800e-14 1 
    0.505425 3.630433e-02 4.263500e-14 1 
    0.505700 3.601395e-02 4.224800e-14 1 
    0.505975 3.649774e-02 4.276900e-14 1 
    0.506250 3.616239e-02 4.233000e-14 1 
    0.506525 3.568342e-02 4.172400e-14 1 
    0.506800 3.547988e-02 4.144100e-14 1 
    0.507075 3.531612e-02 4.120500e-14 1 
    0.507350 3.520600e-02 4.103200e-14 1 
    0.507625 3.514712e-02 4.091900e-14 1 
    0.507900 3.506397e-02 4.077800e-14 1 
    0.508175 3.551083e-02 4.125300e-14 1 
    0.508450 3.523647e-02 4.089000e-14 1 
    0.508725 3.469229e-02 4.021500e-14 1 
    0.509000 3.467108e-02 4.014700e-14 1 
    0.509275 3.425813e-02 3.962600e-14 1 
    0.509550 3.369537e-02 3.893300e-14 1 
    0.509825 3.368583e-02 3.888000e-14 1 
    0.510100 3.344203e-02 3.855700e-14 1 
    0.510375 3.353367e-02 3.862100e-14 1 
    0.510650 3.372106e-02 3.879500e-14 1 
    0.510925 3.390618e-02 3.896600e-14 1 
    0.511200 3.439304e-02 3.948300e-14 1 
    0.511475 3.484601e-02 3.996000e-14 1 
    0.511750 3.545091e-02 4.061000e-14 1 
    0.512025 3.582810e-02 4.099800e-14 1 
    0.512300 3.495851e-02 3.996000e-14 1 
    0.512575 3.471318e-02 3.963700e-14 1 
    0.512850 3.439361e-02 3.923000e-14 1 
    0.513125 3.445947e-02 3.926300e-14 1 
    0.513400 3.521423e-02 4.008000e-14 1 
    0.513675 3.544283e-02 4.029700e-14 1 
    0.513950 3.589197e-02 4.076400e-14 1 
    0.514225 3.640724e-02 4.130500e-14 1 
    0.514500 3.712296e-02 4.207200e-14 1 
    0.514775 3.708139e-02 4.198000e-14 1 
    0.515050 3.709008e-02 4.194500e-14 1 
    0.515325 3.657467e-02 4.131800e-14 1 
    0.515600 3.616888e-02 4.081600e-14 1 
    0.515875 3.512167e-02 3.959200e-14 1 
    0.516150 3.523461e-02 3.967700e-14 1 
    0.516425 3.506592e-02 3.944500e-14 1 
    0.516700 3.478290e-02 3.908500e-14 1 
    0.516975 3.479766e-02 3.906000e-14 1 
    0.517250 3.469289e-02 3.890100e-14 1 
    0.517525 3.511190e-02 3.932900e-14 1 
    0.517800 3.597771e-02 4.025600e-14 1 
    0.518075 3.618323e-02 4.044300e-14 1 
    0.518350 3.591177e-02 4.009700e-14 1 
    0.518625 3.594092e-02 4.008700e-14 1 
    0.518900 3.573402e-02 3.981400e-14 1 
    0.519175 3.529482e-02 3.928300e-14 1 
    0.519450 3.519101e-02 3.912600e-14 1 
    0.519725 3.507972e-02 3.896100e-14 1 
    0.520000 3.538004e-02 3.925300e-14 1 
    0.520275 3.574410e-02 3.961500e-14 1 
    0.520550 3.588035e-02 3.972400e-14 1 
    0.520825 3.599964e-02 3.981400e-14 1 
    0.521100 3.583492e-02 3.959000e-14 1 
    0.521375 3.518411e-02 3.883000e-14 1 
    0.521650 3.438129e-02 3.790400e-14 1 
    0.521925 3.453923e-02 3.803800e-14 1 
    0.522200 3.533372e-02 3.887200e-14 1 
    0.522475 3.559661e-02 3.912000e-14 1 
    0.522750 3.503655e-02 3.846400e-14 1 
    0.523025 3.470503e-02 3.806000e-14 1 
    0.523300 3.450055e-02 3.779600e-14 1 
    0.523575 3.429102e-02 3.752700e-14 1 
    0.523850 3.452463e-02 3.774300e-14 1 
    0.524125 3.481911e-02 3.802500e-14 1 
    0.524400 3.456967e-02 3.771300e-14 1 
    0.524675 3.525101e-02 3.841600e-14 1 
    0.524950 3.466243e-02 3.773500e-14 1 
    0.525225 3.305462e-02 3.594700e-14 1 
    0.525500 3.091226e-02 3.358200e-14 1 
    0.525775 2.928783e-02 3.178400e-14 1 
    0.526050 2.862573e-02 3.103300e-14 1 
    0.526325 2.877848e-02 3.116600e-14 1 
    0.526600 2.911267e-02 3.149500e-14 1 
    0.526875 2.985189e-02 3.226100e-14 1 
    0.527150 3.030452e-02 3.271600e-14 1 
    0.527425 3.051510e-02 3.290900e-14 1 
    0.527700 3.208129e-02 3.456200e-14 1 
    0.527975 3.335520e-02 3.589700e-14 1 
    0.528250 3.444849e-02 3.703500e-14 1 
    0.528525 3.596300e-02 3.862300e-14 1 
    0.528800 3.659138e-02 3.925700e-14 1 
    0.529075 3.587366e-02 3.844700e-14 1 
    0.529350 3.527955e-02 3.777100e-14 1 
    0.529625 3.521056e-02 3.765800e-14 1 
    0.529900 3.508521e-02 3.748500e-14 1 
    0.530175 3.612136e-02 3.855200e-14 1 
    0.530450 3.734063e-02 3.981200e-14 1 
    0.530725 3.813048e-02 4.061200e-14 1 
    0.531000 3.867471e-02 4.114900e-14 1 
    0.531275 3.920684e-02 4.167200e-14 1 
    0.531550 3.900069e-02 4.141000e-14 1 
    0.531825 3.857531e-02 4.091600e-14 1 
    0.532100 3.897385e-02 4.129600e-14 1 
    0.532375 3.936747e-02 4.167000e-14 1 
    0.532650 3.989615e-02 4.218600e-14 1 
    0.532925 4.067578e-02 4.296600e-14 1 
    0.533200 4.063437e-02 4.287800e-14 1 
    0.533475 4.080247e-02 4.301100e-14 1 
    0.533750 4.119401e-02 4.337900e-14 1 
    0.534025 4.047218e-02 4.257500e-14 1 
    0.534300 4.035115e-02 4.240400e-14 1 
    0.534575 3.977257e-02 4.175300e-14 1 
    0.534850 3.965045e-02 4.158200e-14 1 
    0.535125 3.884647e-02 4.069700e-14 1 
    0.535400 3.761559e-02 3.936700e-14 1 
    0.535675 3.629219e-02 3.794300e-14 1 
    0.535950 3.583828e-02 3.743000e-14 1 
    0.536225 3.634375e-02 3.791900e-14 1 
    0.536500 3.757650e-02 3.916500e-14 1 
    0.536775 3.897979e-02 4.058600e-14 1 
    0.537050 4.037341e-02 4.199400e-14 1 
    0.537325 4.152537e-02 4.314800e-14 1 
    0.537600 4.241759e-02 4.403000e-14 1 
    0.537875 4.273584e-02 4.431500e-14 1 
    0.538150 4.361071e-02 4.517600e-14 1 
    0.538425 4.357026e-02 4.508800e-14 1 
    0.538700 4.288929e-02 4.433800e-14 1 
    0.538975 4.211292e-02 4.349100e-14 1 
    0.539250 4.225865e-02 4.359700e-14 1 
    0.539525 4.319540e-02 4.451800e-14 1 
    0.539800 4.397471e-02 4.527500e-14 1 
    0.540075 4.501124e-02 4.629500e-14 1 
    0.540350 4.556805e-02 4.682000e-14 1 
    0.540625 4.522280e-02 4.641800e-14 1 
    0.540900 4.430430e-02 4.542900e-14 1 
    0.541175 4.362304e-02 4.468500e-14 1 
    0.541450 4.309082e-02 4.409500e-14 1 
    0.541725 4.200378e-02 4.293900e-14 1 
    0.542000 4.117592e-02 4.205000e-14 1 
    0.542275 4.081093e-02 4.163500e-14 1 
    0.542550 4.154800e-02 4.234400e-14 1 
    0.542825 4.233464e-02 4.310200e-14 1 
    0.543100 4.244636e-02 4.317200e-14 1 
    0.543375 4.322160e-02 4.391600e-14 1 
    0.543650 4.293237e-02 4.357800e-14 1 
    0.543925 4.341072e-02 4.401900e-14 1 
    0.544200 4.335196e-02 4.391500e-14 1 
    0.544475 4.448377e-02 4.501600e-14 1 
    0.544750 4.557625e-02 4.607500e-14 1 
    0.545025 4.600844e-02 4.646500e-14 1 
    0.545300 4.587647e-02 4.628500e-14 1 
    0.545575 4.475199e-02 4.510500e-14 1 
    0.545850 4.406515e-02 4.436800e-14 1 
    0.546125 4.352995e-02 4.378500e-14 1 
    0.546400 4.313095e-02 4.334000e-14 1 
    0.546675 4.391952e-02 4.408800e-14 1 
    0.546950 4.511247e-02 4.524000e-14 1 
    0.547225 4.549124e-02 4.557400e-14 1 
    0.547500 4.562090e-02 4.565800e-14 1 
    0.547775 4.489759e-02 4.488900e-14 1 
    0.548050 4.466335e-02 4.461000e-14 1 
    0.548325 4.439550e-02 4.429800e-14 1 
    0.548600 4.330341e-02 4.316500e-14 1 
    0.548875 4.279452e-02 4.261500e-14 1 
    0.549150 4.221619e-02 4.199700e-14 1 
    0.549425 4.177348e-02 4.151500e-14 1 
    0.549700 4.191905e-02 4.161800e-14 1 
    0.549975 4.225742e-02 4.191200e-14 1 
    0.550250 4.260953e-02 4.221900e-14 1 
    0.550525 4.354925e-02 4.310700e-14 1 
    0.550800 4.473752e-02 4.423900e-14 1 
    0.551075 4.492494e-02 4.438000e-14 1 
    0.551350 4.531531e-02 4.472100e-14 1 
    0.551625 4.551166e-02 4.487000e-14 1 
    0.551900 4.456103e-02 4.388900e-14 1 
    0.552175 4.412371e-02 4.341500e-14 1 
    0.552450 4.433757e-02 4.358200e-14 1 
    0.552725 4.407418e-02 4.328000e-14 1 
    0.553000 4.421488e-02 4.337500e-14 1 
    0.553275 4.484967e-02 4.395400e-14 1 
    0.553550 4.568687e-02 4.473000e-14 1 
    0.553825 4.559220e-02 4.459300e-14 1 
    0.554100 4.518002e-02 4.414600e-14 1 
    0.554375 4.438996e-02 4.333100e-14 1 
    0.554650 4.396537e-02 4.287400e-14 1 
    0.554925 4.338489e-02 4.226600e-14 1 
    0.555200 4.369710e-02 4.252800e-14 1 
    0.555475 4.379183e-02 4.257800e-14 1 
    0.555750 4.317630e-02 4.193800e-14 1 
    0.556025 4.420424e-02 4.289400e-14 1 
    0.556300 4.434288e-02 4.298600e-14 1 
    0.556575 4.469341e-02 4.328300e-14 1 
    0.556850 4.369158e-02 4.227100e-14 1 
    0.557125 4.399443e-02 4.252200e-14 1 
    0.557400 4.312029e-02 4.163600e-14 1 
    0.557675 4.442551e-02 4.285400e-14 1 
    0.557950 4.481178e-02 4.318400e-14 1 
    0.558225 4.448514e-02 4.282700e-14 1 
    0.558500 4.519337e-02 4.346600e-14 1 
    0.558775 4.542835e-02 4.364900e-14 1 
    0.559050 4.568769e-02 4.385500e-14 1 
    0.559325 4.519977e-02 4.334400e-14 1 
    0.559600 4.568055e-02 4.376200e-14 1 
    0.559875 4.462730e-02 4.271100e-14 1 
    0.560150 4.444106e-02 4.249100e-14 1 
    0.560425 4.342208e-02 4.147600e-14 1 
    0.560700 4.460382e-02 4.256300e-14 1 
    0.560975 4.497277e-02 4.287300e-14 1 
    0.561250 4.533293e-02 4.317400e-14 1 
    0.561525 4.566429e-02 4.344700e-14 1 
    0.561800 4.592786e-02 4.365500e-14 1 
    0.562075 4.605076e-02 4.372900e-14 1 
    0.562350 4.550974e-02 4.317300e-14 1 
    0.562625 4.590985e-02 4.351000e-14 1 
    0.562900 4.652508e-02 4.405000e-14 1 
    0.563175 4.664773e-02 4.412300e-14 1 
    0.563450 4.695998e-02 4.437500e-14 1 
    0.563725 4.756619e-02 4.490400e-14 1 
    0.564000 4.737934e-02 4.468400e-14 1 
    0.564275 4.792864e-02 4.515800e-14 1 
    0.564550 4.824415e-02 4.541100e-14 1 
    0.564825 4.812207e-02 4.525200e-14 1 
    0.565100 4.786557e-02 4.496700e-14 1 
    0.565375 4.761490e-02 4.468800e-14 1 
    0.565650 4.720796e-02 4.426300e-14 1 
    0.565925 4.679908e-02 4.383700e-14 1 
    0.566200 4.670459e-02 4.370600e-14 1 
    0.566475 4.640340e-02 4.338200e-14 1 
    0.566750 4.665725e-02 4.357700e-14 1 
    0.567025 4.611630e-02 4.303000e-14 1 
    0.567300 4.632840e-02 4.318600e-14 1 
    0.567575 4.574730e-02 4.260300e-14 1 
    0.567850 4.642795e-02 4.319500e-14 1 
    0.568125 4.572304e-02 4.249800e-14 1 
    0.568400 4.568116e-02 4.241800e-14 1 
    0.568675 4.483173e-02 4.158900e-14 1 
    0.568950 4.409497e-02 4.086600e-14 1 
    0.569225 4.527059e-02 4.191500e-14 1 
    0.569500 4.581381e-02 4.237700e-14 1 
    0.569775 4.613401e-02 4.263200e-14 1 
    0.570050 4.611031e-02 4.256900e-14 1 
    0.570325 4.648117e-02 4.287000e-14 1 
    0.570600 4.747562e-02 4.374500e-14 1 
    0.570875 4.677075e-02 4.305400e-14 1 
    0.571150 4.651135e-02 4.277400e-14 1 
    0.571425 4.640051e-02 4.263100e-14 1 
    0.571700 4.570761e-02 4.195400e-14 1 
    0.571975 4.631103e-02 4.246700e-14 1 
    0.572250 4.670487e-02 4.278700e-14 1 
    0.572525 4.727204e-02 4.326500e-14 1 
    0.572800 4.715889e-02 4.312000e-14 1 
    0.573075 4.760813e-02 4.348900e-14 1 
    0.573350 4.749056e-02 4.334000e-14 1 
    0.573625 4.718734e-02 4.302200e-14 1 
    0.573900 4.745327e-02 4.322300e-14 1 
    0.574175 4.690863e-02 4.268600e-14 1 
    0.574450 4.816025e-02 4.378300e-14 1 
    0.574725 4.780229e-02 4.341600e-14 1 
    0.575000 4.767392e-02 4.325800e-14 1 
    0.575275 4.731909e-02 4.289500e-14 1 
    0.575550 4.746703e-02 4.298800e-14 1 
    0.575825 4.715541e-02 4.266500e-14 1 
    0.576100 4.719935e-02 4.266400e-14 1 
    0.576375 4.696205e-02 4.240900e-14 1 
    0.576650 4.770518e-02 4.303900e-14 1 
    0.576925 4.848183e-02 4.369800e-14 1 
    0.577200 4.958307e-02 4.464800e-14 1 
    0.577475 4.877440e-02 4.387800e-14 1 
    0.577750 4.847706e-02 4.356900e-14 1 
    0.578025 4.749192e-02 4.264300e-14 1 
    0.578300 4.778571e-02 4.286600e-14 1 
    0.578575 4.870152e-02 4.364600e-14 1 
    0.578850 4.807434e-02 4.304300e-14 1 
    0.579125 4.932295e-02 4.411900e-14 1 
    0.579400 4.997407e-02 4.465900e-14 1 
    0.579675 4.875920e-02 4.353200e-14 1 
    0.579950 4.759464e-02 4.245200e-14 1 
    0.580225 4.724028e-02 4.209600e-14 1 
    0.580500 4.770629e-02 4.247100e-14 1 
    0.580775 4.751427e-02 4.226000e-14 1 
    0.581050 4.743098e-02 4.214600e-14 1 
    0.581325 4.812135e-02 4.271900e-14 1 
    0.581600 4.951767e-02 4.391700e-14 1 
    0.581875 5.054413e-02 4.478500e-14 1 
    0.582150 5.117708e-02 4.530300e-14 1 
    0.582425 5.044524e-02 4.461300e-14 1 
    0.582700 5.114254e-02 4.518700e-14 1 
    0.582975 5.119762e-02 4.519300e-14 1 
    0.583250 5.072319e-02 4.473200e-14 1 
    0.583525 5.054063e-02 4.452900e-14 1 
    0.583800 5.118131e-02 4.505100e-14 1 
    0.584075 5.055862e-02 4.446100e-14 1 
    0.584350 5.204267e-02 4.572300e-14 1 
    0.584625 5.112213e-02 4.487200e-14 1 
    0.584900 5.067304e-02 4.443600e-14 1 
    0.585175 5.082799e-02 4.453000e-14 1 
    0.585450 5.097746e-02 4.461900e-14 1 
    0.585725 5.067657e-02 4.431400e-14 1 
    0.586000 5.148994e-02 4.498300e-14 1 
    0.586275 5.179836e-02 4.521000e-14 1 
    0.586550 5.200637e-02 4.534900e-14 1 
    0.586825 5.222733e-02 4.549900e-14 1 
    0.587100 5.251183e-02 4.570400e-14 1 
    0.587375 5.151910e-02 4.479800e-14 1 
    0.587650 5.110806e-02 4.439900e-14 1 
    0.587925 5.032057e-02 4.367400e-14 1 
    0.588200 4.931127e-02 4.275800e-14 1 
    0.588475 4.975910e-02 4.310600e-14 1 
    0.588750 5.073573e-02 4.391100e-14 1 
    0.589025 5.119485e-02 4.426700e-14 1 
    0.589300 5.107944e-02 4.412600e-14 1 
    0.589575 5.173427e-02 4.465000e-14 1 
    0.589850 5.285415e-02 4.557400e-14 1 
    0.590125 5.377754e-02 4.632700e-14 1 
    0.590400 5.367314e-02 4.619400e-14 1 
    0.590675 5.355220e-02 4.604700e-14 1 
    0.590950 5.324005e-02 4.573600e-14 1 
    0.591225 5.312881e-02 4.559800e-14 1 
    0.591500 5.313276e-02 4.555900e-14 1 
    0.591775 5.461566e-02 4.678700e-14 1 
    0.592050 5.441289e-02 4.657000e-14 1 
    0.592325 5.392782e-02 4.611200e-14 1 
    0.592600 5.401419e-02 4.614300e-14 1 
    0.592875 5.420962e-02 4.626700e-14 1 
    0.593150 5.332055e-02 4.546600e-14 1 
    0.593425 5.303780e-02 4.518300e-14 1 
    0.593700 5.362979e-02 4.564500e-14 1 
    0.593975 5.332314e-02 4.534200e-14 1 
    0.594250 5.302764e-02 4.504900e-14 1 
    0.594525 5.291649e-02 4.491300e-14 1 
    0.594800 5.309990e-02 4.502700e-14 1 
    0.595075 5.323636e-02 4.510100e-14 1 
    0.595350 5.204502e-02 4.405100e-14 1 
    0.595625 5.188972e-02 4.387900e-14 1 
    0.595900 5.165593e-02 4.364100e-14 1 
    0.596175 5.121313e-02 4.322700e-14 1 
    0.596450 5.185450e-02 4.372800e-14 1 
    0.596725 5.223348e-02 4.400700e-14 1 
    0.597000 5.243845e-02 4.413900e-14 1 
    0.597275 5.308015e-02 4.463800e-14 1 
    0.597550 5.171506e-02 4.345000e-14 1 
    0.597825 5.075482e-02 4.260400e-14 1 
    0.598100 5.116759e-02 4.291100e-14 1 
    0.598375 4.935756e-02 4.135500e-14 1 
    0.598650 4.647854e-02 3.890700e-14 1 
    0.598925 4.449334e-02 3.721100e-14 1 
    0.599200 4.230456e-02 3.534800e-14 1 
    0.599475 4.140904e-02 3.456800e-14 1 
    0.599750 4.235708e-02 3.532700e-14 1 
    0.600025 4.379405e-02 3.649200e-14 1 
    0.600300 4.543300e-02 3.782300e-14 1 
    0.600575 4.770491e-02 3.967800e-14 1 
    0.600850 4.942975e-02 4.107500e-14 1 
    0.601125 5.035550e-02 4.180600e-14 1 
    0.601400 5.124792e-02 4.250800e-14 1 
    0.601675 5.171715e-02 4.285800e-14 1 
    0.601950 5.174028e-02 4.283800e-14 1 
    0.602225 5.213694e-02 4.312700e-14 1 
    0.602500 5.204663e-02 4.301300e-14 1 
    0.602775 5.159879e-02 4.260400e-14 1 
    0.603050 5.245930e-02 4.327500e-14 1 
    0.603325 5.221838e-02 4.303700e-14 1 
    0.603600 5.253803e-02 4.326100e-14 1 
    0.603875 5.285820e-02 4.348500e-14 1 
    0.604150 5.299030e-02 4.355400e-14 1 
    0.604425 5.265982e-02 4.324300e-14 1 
    0.604700 5.245788e-02 4.303800e-14 1 
    0.604975 5.313390e-02 4.355300e-14 1 
    0.605250 5.289892e-02 4.332100e-14 1 
    0.605525 5.310711e-02 4.345200e-14 1 
    0.605800 5.349422e-02 4.372900e-14 1 
    0.606075 5.315220e-02 4.341000e-14 1 
    0.606350 5.347864e-02 4.363700e-14 1 
    0.606625 5.424721e-02 4.422400e-14 1 
    0.606900 5.370339e-02 4.374100e-14 1 
    0.607175 5.439969e-02 4.426800e-14 1 
    0.607450 5.451171e-02 4.431900e-14 1 
    0.607725 5.433086e-02 4.413200e-14 1 
    0.608000 5.377872e-02 4.364400e-14 1 
    0.608275 5.293692e-02 4.292200e-14 1 
    0.608550 5.257619e-02 4.259100e-14 1 
    0.608825 5.328845e-02 4.312900e-14 1 
    0.609100 5.370884e-02 4.343000e-14 1 
    0.609375 5.386503e-02 4.351700e-14 1 
    0.609650 5.385296e-02 4.346800e-14 1 
    0.609925 5.419048e-02 4.370100e-14 1 
    0.610200 5.448883e-02 4.390200e-14 1 
    0.610475 5.379384e-02 4.330300e-14 1 
    0.610750 5.340837e-02 4.295400e-14 1 
    0.611025 5.387463e-02 4.329000e-14 1 
    0.611300 5.295902e-02 4.251600e-14 1 
    0.611575 5.406018e-02 4.336100e-14 1 
    0.611850 5.336009e-02 4.276100e-14 1 
    0.612125 5.331564e-02 4.268700e-14 1 
    0.612400 5.374859e-02 4.299500e-14 1 
    0.612675 5.432239e-02 4.341500e-14 1 
    0.612950 5.513511e-02 4.402500e-14 1 
    0.613225 5.507679e-02 4.393900e-14 1 
    0.613500 5.566317e-02 4.436700e-14 1 
    0.613775 5.642257e-02 4.493200e-14 1 
    0.614050 5.642413e-02 4.489300e-14 1 
    0.614325 5.606709e-02 4.456900e-14 1 
    0.614600 5.723287e-02 4.545500e-14 1 
    0.614875 5.763823e-02 4.573600e-14 1 
    0.615150 5.797486e-02 4.596200e-14 1 
    0.615425 5.675790e-02 4.495700e-14 1 
    0.615700 5.711570e-02 4.520000e-14 1 
    0.615975 5.673165e-02 4.485600e-14 1 
    0.616250 5.648358e-02 4.462000e-14 1 
    0.616525 5.665183e-02 4.471300e-14 1 
    0.616800 5.546214e-02 4.373500e-14 1 
    0.617075 5.572357e-02 4.390200e-14 1 
    0.617350 5.722278e-02 4.504300e-14 1 
    0.617625 5.728394e-02 4.505100e-14 1 
    0.617900 5.738333e-02 4.508900e-14 1 
    0.618175 5.641538e-02 4.428900e-14 1 
    0.618450 5.625522e-02 4.412400e-14 1 
    0.618725 5.654771e-02 4.431400e-14 1 
    0.619000 5.534377e-02 4.333200e-14 1 
    0.619275 5.618553e-02 4.395200e-14 1 
    0.619550 5.613181e-02 4.387100e-14 1 
    0.619825 5.527882e-02 4.316600e-14 1 
    0.620100 5.586493e-02 4.358500e-14 1 
    0.620375 5.580031e-02 4.349600e-14 1 
    0.620650 5.543506e-02 4.317300e-14 1 
    0.620925 5.624244e-02 4.376300e-14 1 
    0.621200 5.537513e-02 4.305000e-14 1 
    0.621475 5.705149e-02 4.431400e-14 1 
    0.621750 5.741770e-02 4.455900e-14 1 
    0.622025 5.648186e-02 4.379400e-14 1 
    0.622300 5.612649e-02 4.348000e-14 1 
    0.622575 5.609730e-02 4.341900e-14 1 
    0.622850 5.538908e-02 4.283300e-14 1 
    0.623125 5.606703e-02 4.331900e-14 1 
    0.623400 5.717748e-02 4.413800e-14 1 
    0.623675 5.640980e-02 4.350700e-14 1 
    0.623950 5.616757e-02 4.328200e-14 1 
    0.624225 5.639114e-02 4.341600e-14 1 
    0.624500 5.685554e-02 4.373500e-14 1 
    0.624775 5.623553e-02 4.322000e-14 1 
    0.625050 5.608319e-02 4.306500e-14 1 
    0.625325 5.689376e-02 4.364900e-14 1 
    0.625600 5.696468e-02 4.366500e-14 1 
    0.625875 5.631882e-02 4.313200e-14 1 
    0.626150 5.589523e-02 4.277000e-14 1 
    0.626425 5.492408e-02 4.199000e-14 1 
    0.626700 5.331752e-02 4.072600e-14 1 
    0.626975 5.154165e-02 3.933500e-14 1 
    0.627250 5.413638e-02 4.127900e-14 1 
    0.627525 5.454746e-02 4.155600e-14 1 
    0.627800 5.456506e-02 4.153300e-14 1 
    0.628075 5.568323e-02 4.234700e-14 1 
    0.628350 5.626370e-02 4.275100e-14 1 
    0.628625 5.669232e-02 4.303900e-14 1 
    0.628900 5.641234e-02 4.278900e-14 1 
    0.629175 5.681004e-02 4.305300e-14 1 
    0.629450 5.560241e-02 4.210100e-14 1 
    0.629725 5.583739e-02 4.224200e-14 1 
    0.630000 5.598142e-02 4.231400e-14 1 
    0.630275 5.555096e-02 4.195200e-14 1 
    0.630550 5.742573e-02 4.333000e-14 1 
    0.630825 5.775173e-02 4.353800e-14 1 
    0.631100 5.842343e-02 4.400600e-14 1 
    0.631375 5.734223e-02 4.315400e-14 1 
    0.631650 5.755445e-02 4.327600e-14 1 
    0.631925 5.608313e-02 4.213300e-14 1 
    0.632200 5.598140e-02 4.202000e-14 1 
    0.632475 5.433668e-02 4.075000e-14 1 
    0.632750 5.579726e-02 4.180900e-14 1 
    0.633025 5.375801e-02 4.024600e-14 1 
    0.633300 5.333280e-02 3.989300e-14 1 
    0.633575 5.478008e-02 4.094000e-14 1 
    0.633850 5.479416e-02 4.091500e-14 1 
    0.634125 5.478542e-02 4.087300e-14 1 
    0.634400 5.474977e-02 4.081100e-14 1 
    0.634675 5.559213e-02 4.140300e-14 1 
    0.634950 5.592791e-02 4.161700e-14 1 
    0.635225 5.520566e-02 4.104400e-14 1 
    0.635500 5.498692e-02 4.084600e-14 1 
    0.635775 5.442416e-02 4.039300e-14 1 
    0.636050 5.503899e-02 4.081400e-14 1 
    0.636325 5.498131e-02 4.073600e-14 1 
    0.636600 5.457766e-02 4.040200e-14 1 
    0.636875 5.495472e-02 4.064600e-14 1 
    0.637150 5.668421e-02 4.188900e-14 1 
    0.637425 5.617515e-02 4.147700e-14 1 
    0.637700 5.671841e-02 4.184200e-14 1 
    0.637975 5.744026e-02 4.233800e-14 1 
    0.638250 5.682715e-02 4.185000e-14 1 
    0.638525 5.634202e-02 4.145700e-14 1 
    0.638800 5.638784e-02 4.145500e-14 1 
    0.639075 5.695237e-02 4.183400e-14 1 
    0.639350 5.763362e-02 4.229800e-14 1 
    0.639625 5.694816e-02 4.175900e-14 1 
    0.639900 5.751853e-02 4.214100e-14 1 
    0.640175 5.558580e-02 4.069000e-14 1 
    0.640450 5.674377e-02 4.150200e-14 1 
    0.640725 5.469745e-02 3.997100e-14 1 
    0.641000 5.686045e-02 4.151600e-14 1 
    0.641275 5.657341e-02 4.127100e-14 1 
    0.641550 5.680853e-02 4.140700e-14 1 
    0.641825 5.683390e-02 4.139000e-14 1 
    0.642100 5.685650e-02 4.137100e-14 1 
    0.642375 5.591624e-02 4.065200e-14 1 
    0.642650 5.693742e-02 4.135900e-14 1 
    0.642925 5.701923e-02 4.138300e-14 1 
    0.643200 5.802644e-02 4.207800e-14 1 
    0.643475 5.818234e-02 4.215500e-14 1 
    0.643750 5.836884e-02 4.225400e-14 1 
    0.644025 5.924411e-02 4.285100e-14 1 
    0.644300 5.841050e-02 4.221200e-14 1 
    0.644575 5.837312e-02 4.214900e-14 1 
    0.644850 5.823720e-02 4.201500e-14 1 
    0.645125 5.819672e-02 4.195000e-14 1 
    0.645400 5.846572e-02 4.210800e-14 1 
    0.645675 5.899498e-02 4.245300e-14 1 
    0.645950 5.994929e-02 4.310300e-14 1 
    0.646225 5.844267e-02 4.198400e-14 1 
    0.646500 5.796440e-02 4.160500e-14 1 
    0.646775 5.756751e-02 4.128500e-14 1 
    0.647050 5.742947e-02 4.115100e-14 1 
    0.647325 5.707184e-02 4.086000e-14 1 
    0.647600 5.773544e-02 4.130000e-14 1 
    0.647875 5.890659e-02 4.210200e-14 1 
    0.648150 6.001946e-02 4.286100e-14 1 
    0.648425 6.043620e-02 4.312200e-14 1 
    0.648700 6.040050e-02 4.306000e-14 1 
    0.648975 6.064266e-02 4.319600e-14 1 
    0.649250 6.089078e-02 4.333600e-14 1 
    0.649525 6.037001e-02 4.292900e-14 1 
    0.649800 6.020861e-02 4.277800e-14 1 
    0.650075 6.026382e-02 4.278100e-14 1 
    0.650350 5.956336e-02 4.224800e-14 1 
    0.650625 5.886166e-02 4.171500e-14 1 
    0.650900 6.013019e-02 4.257800e-14 1 
    0.651175 5.994638e-02 4.241200e-14 1 
    0.651450 5.980322e-02 4.227500e-14 1 
    0.651725 5.914864e-02 4.177700e-14 1 
    0.652000 5.903844e-02 4.166400e-14 1 
    0.652275 5.845715e-02 4.121900e-14 1 
    0.652550 5.789469e-02 4.078800e-14 1 
    0.652825 5.910697e-02 4.160700e-14 1 
    0.653100 5.922218e-02 4.165300e-14 1 
    0.653375 5.921372e-02 4.161200e-14 1 
    0.653650 5.877223e-02 4.126700e-14 1 
    0.653925 5.973110e-02 4.190500e-14 1 
    0.654200 6.070578e-02 4.255300e-14 1 
    0.654475 6.041844e-02 4.231600e-14 1 
    0.654750 5.973472e-02 4.180200e-14 1 
    0.655025 6.057008e-02 4.235100e-14 1 
    0.655300 6.027741e-02 4.211100e-14 1 
    0.655575 6.017616e-02 4.200500e-14 1 
    0.655850 6.022953e-02 4.200700e-14 1 
    0.656125 5.988112e-02 4.172900e-14 1 
    0.656400 5.971733e-02 4.158000e-14 1 
    0.656675 6.090437e-02 4.237100e-14 1 
    0.656950 6.093525e-02 4.235700e-14 1 
    0.657225 6.173354e-02 4.287600e-14 1 
    0.657500 6.151862e-02 4.269100e-14 1 
    0.657775 6.153836e-02 4.266900e-14 1 
    0.658050 6.234186e-02 4.319000e-14 1 
    0.658325 6.175833e-02 4.275000e-14 1 
    0.658600 6.237237e-02 4.313900e-14 1 
    0.658875 6.231160e-02 4.306100e-14 1 
    0.659150 6.207542e-02 4.286200e-14 1 
    0.659425 6.186488e-02 4.268100e-14 1 
    0.659700 6.134057e-02 4.228400e-14 1 
    0.659975 6.057285e-02 4.172000e-14 1 
    0.660250 6.021357e-02 4.143800e-14 1 
    0.660525 5.913083e-02 4.065900e-14 1 
    0.660800 5.917425e-02 4.065500e-14 1 
    0.661075 5.892489e-02 4.045000e-14 1 
    0.661350 5.797085e-02 3.976200e-14 1 
    0.661625 6.000499e-02 4.112300e-14 1 
    0.661900 6.128743e-02 4.196700e-14 1 
    0.662175 6.252079e-02 4.277600e-14 1 
    0.662450 6.259029e-02 4.278800e-14 1 
    0.662725 6.199956e-02 4.234900e-14 1 
    0.663000 6.206714e-02 4.236000e-14 1 
    0.663275 6.336219e-02 4.320800e-14 1 
    0.663550 6.282034e-02 4.280300e-14 1 
    0.663825 6.313241e-02 4.298000e-14 1 
    0.664100 6.335085e-02 4.309300e-14 1 
    0.664375 6.320470e-02 4.295800e-14 1 
    0.664650 6.385782e-02 4.336600e-14 1 
    0.664925 6.304853e-02 4.278100e-14 1 
    0.665200 6.367446e-02 4.317000e-14 1 
    0.665475 6.246055e-02 4.231200e-14 1 
    0.665750 6.373399e-02 4.313900e-14 1 
    0.666025 6.230655e-02 4.213800e-14 1 
    0.666300 6.153670e-02 4.158300e-14 1 
    0.666575 6.036266e-02 4.075600e-14 1 
    0.666850 5.915252e-02 3.990600e-14 1 
    0.667125 5.924879e-02 3.993800e-14 1 
    0.667400 5.772382e-02 3.887800e-14 1 
    0.667675 5.637757e-02 3.794000e-14 1 
    0.667950 5.757510e-02 3.871400e-14 1 
    0.668225 5.817769e-02 3.908700e-14 1 
    0.668500 5.903894e-02 3.963300e-14 1 
    0.668775 6.095259e-02 4.088400e-14 1 
    0.669050 6.115940e-02 4.098900e-14 1 
    0.669325 6.163229e-02 4.127200e-14 1 
    0.669600 6.239585e-02 4.174900e-14 1 
    0.669875 6.233343e-02 4.167300e-14 1 
    0.670150 6.315108e-02 4.218500e-14 1 
    0.670425 6.330031e-02 4.225000e-14 1 
    0.670700 6.177632e-02 4.119900e-14 1 
    0.670975 6.244678e-02 4.161200e-14 1 
    0.671250 6.301764e-02 4.195800e-14 1 
    0.671525 6.154809e-02 4.094600e-14 1 
    0.671800 6.120888e-02 4.068700e-14 1 
    0.672075 6.169261e-02 4.097500e-14 1 
    0.672350 6.165572e-02 4.091700e-14 1 
    0.672625 6.203794e-02 4.113700e-14 1 
    0.672900 6.239205e-02 4.133800e-14 1 
    0.673175 6.191134e-02 4.098600e-14 1 
    0.673450 6.242454e-02 4.129200e-14 1 
    0.673725 6.298845e-02 4.163100e-14 1 
    0.674000 6.305502e-02 4.164100e-14 1 
    0.674275 6.236087e-02 4.114900e-14 1 
    0.674550 6.142436e-02 4.049800e-14 1 
    0.674825 6.040581e-02 3.979400e-14 1 
    0.675100 6.192867e-02 4.076400e-14 1 
    0.675375 6.220112e-02 4.091000e-14 1 
    0.675650 6.148181e-02 4.040400e-14 1 
    0.675925 6.089529e-02 3.998600e-14 1 
    0.676200 6.167949e-02 4.046800e-14 1 
    0.676475 6.234441e-02 4.087100e-14 1 
    0.676750 6.216000e-02 4.071700e-14 1 
    0.677025 6.089198e-02 3.985400e-14 1 
    0.677300 6.159592e-02 4.028200e-14 1 
    0.677575 6.040024e-02 3.946800e-14 1 
    0.677850 6.184456e-02 4.037900e-14 1 
    0.678125 6.194840e-02 4.041400e-14 1 
    0.678400 6.025593e-02 3.927800e-14 1 
    0.678675 6.123060e-02 3.988100e-14 1 
    0.678950 6.026455e-02 3.922000e-14 1 
    0.679225 6.118225e-02 3.978500e-14 1 
    0.680769 6.405447e-02 4.146400e-14 0 
    0.682339 6.407091e-02 4.128400e-14 0 
    0.683912 6.008532e-02 3.853800e-14 0 
    0.685488 6.410291e-02 4.092600e-14 0 
    0.687068 6.280319e-02 3.991200e-14 0 
    0.688652 6.502642e-02 4.113500e-14 0 
    0.690240 6.625253e-02 4.171800e-14 0 
    0.691831 6.387159e-02 4.003400e-14 0 
    0.693426 6.507523e-02 4.060100e-14 0 
    0.695024 6.691486e-02 4.155700e-14 0 
    0.696626 6.275256e-02 3.879300e-14 0 
    0.698233 6.349582e-02 3.907200e-14 0 
    0.699842 6.454469e-02 3.953500e-14 0 
    0.701455 6.530835e-02 3.981900e-14 0 
    0.703072 6.608105e-02 4.010500e-14 0 
    0.704693 6.594580e-02 3.983900e-14 0 
    0.706318 6.843872e-02 4.115500e-14 0 
    0.707946 6.751664e-02 4.041400e-14 0 
    0.709578 7.136958e-02 4.252400e-14 0 
    0.711214 7.138882e-02 4.234000e-14 0 
    0.712853 6.898263e-02 4.072500e-14 0 
    0.714496 6.665828e-02 3.917200e-14 0 
    0.716143 7.177316e-02 4.198400e-14 0 
    0.717794 7.500177e-02 4.367100e-14 0 
    0.719449 6.794970e-02 3.938300e-14 0 
    0.721108 7.084436e-02 4.087200e-14 0 
    0.722770 6.798469e-02 3.904200e-14 0 
    0.724436 6.816025e-02 3.896300e-14 0 
    0.726106 6.436423e-02 3.662400e-14 0 
    0.727780 6.542583e-02 3.705700e-14 0 
    0.729457 6.589796e-02 3.715300e-14 0 
    0.731139 6.530949e-02 3.665200e-14 0 
    0.732825 6.746739e-02 3.768900e-14 0 
    0.734514 7.001772e-02 3.893400e-14 0 
    0.736207 7.183316e-02 3.976000e-14 0 
    0.737904 7.268380e-02 4.004600e-14 0 
    0.739605 7.154051e-02 3.923500e-14 0 
    0.741310 7.238914e-02 3.951800e-14 0 
    0.743019 7.669824e-02 4.167800e-14 0 
    0.744732 7.619078e-02 4.121200e-14 0 
    0.746449 7.656295e-02 4.122300e-14 0 
    0.748170 7.891101e-02 4.229200e-14 0 
    0.749894 7.713444e-02 4.115000e-14 0 
    0.751623 8.023614e-02 4.260800e-14 0 
    0.753356 8.062737e-02 4.261900e-14 0 
    0.755092 7.791100e-02 4.099400e-14 0 
    0.756833 8.179339e-02 4.283900e-14 0 
    0.758578 8.352903e-02 4.354700e-14 0 
    0.760326 8.510531e-02 4.416500e-14 0 
    0.762079 8.338229e-02 4.307200e-14 0 
    0.763836 8.593956e-02 4.418900e-14 0 
    0.765597 8.756132e-02 4.481600e-14 0 
    0.767361 8.819296e-02 4.493200e-14 0 
    0.769130 8.620817e-02 4.371900e-14 0 
    0.770904 8.446290e-02 4.263700e-14 0 
    0.772681 8.371240e-02 4.206400e-14 0 
    0.774462 8.296715e-02 4.149800e-14 0 
    0.776247 8.375777e-02 4.170100e-14 0 
    0.778037 8.514331e-02 4.219600e-14 0 
    0.779830 8.095895e-02 3.993800e-14 0 
    0.781628 8.248739e-02 4.050500e-14 0 
    0.783430 8.213166e-02 4.014500e-14 0 
    0.785236 8.158997e-02 3.969700e-14 0 
    0.787046 8.255709e-02 3.998300e-14 0 
    0.788860 7.922710e-02 3.819400e-14 0 
    0.790679 8.356066e-02 4.009800e-14 0 
    0.792501 8.319882e-02 3.974100e-14 0 
    0.794328 8.322322e-02 3.957000e-14 0 
    0.796159 8.716968e-02 4.125600e-14 0 
    0.797995 8.365378e-02 3.941000e-14 0 
    0.799834 8.641959e-02 4.052600e-14 0 
    0.801678 8.604730e-02 4.016600e-14 0 
    0.803526 8.828027e-02 4.101900e-14 0 
    0.805378 8.472021e-02 3.918400e-14 0 
    0.807235 8.552840e-02 3.937600e-14 0 
    0.809096 8.170298e-02 3.744200e-14 0 
    0.810961 8.676697e-02 3.958000e-14 0 
    0.812831 8.942937e-02 4.060700e-14 0 
    0.814704 8.681753e-02 3.924000e-14 0 
    0.816582 9.198812e-02 4.138600e-14 0 
    0.818465 9.415903e-02 4.216800e-14 0 
    0.820352 9.440301e-02 4.208300e-14 0 
    0.822243 9.018053e-02 4.001600e-14 0 
    0.824138 8.674333e-02 3.831400e-14 0 
    0.826038 9.318928e-02 4.097200e-14 0 
    0.827942 9.343201e-02 4.089000e-14 0 
    0.829851 9.154259e-02 3.987900e-14 0 
    0.831764 9.199280e-02 3.989100e-14 0 
    0.833681 8.992451e-02 3.881500e-14 0 
    0.835603 9.549958e-02 4.103200e-14 0 
    0.837529 9.400196e-02 4.020300e-14 0 
    0.839460 9.688589e-02 4.124600e-14 0 
    0.841395 1.000893e-01 4.241400e-14 0 
    0.843335 9.539512e-02 4.023900e-14 0 
    0.845279 9.608312e-02 4.034300e-14 0 
    0.847227 9.284899e-02 3.880600e-14 0 
    0.849180 9.395298e-02 3.908700e-14 0 
    0.851138 9.795822e-02 4.056600e-14 0 
    0.853100 9.422563e-02 3.884100e-14 0 
    0.855067 9.600593e-02 3.939300e-14 0 
    0.857038 9.895375e-02 4.041600e-14 0 
    0.859014 8.801731e-02 3.578400e-14 0 
    0.860994 9.433921e-02 3.817800e-14 0 
    0.862979 9.746069e-02 3.926000e-14 0 
    0.864968 9.353118e-02 3.750400e-14 0 
    0.866962 9.206381e-02 3.674600e-14 0 
    0.868960 9.510880e-02 3.778700e-14 0 
    0.870964 9.757845e-02 3.859000e-14 0 
    0.872971 9.805916e-02 3.860200e-14 0 
    0.874984 9.809083e-02 3.843700e-14 0 
    0.877001 9.544656e-02 3.722900e-14 0 
    0.879023 1.004357e-01 3.899500e-14 0 
    0.881049 9.840747e-02 3.803200e-14 0 
    0.883080 9.686271e-02 3.726300e-14 0 
    0.885116 9.824216e-02 3.762000e-14 0 
    0.887156 1.003300e-01 3.824300e-14 0 
    0.889201 1.048492e-01 3.978200e-14 0 
    0.891251 1.017879e-01 3.844300e-14 0 
    0.893305 1.008877e-01 3.792800e-14 0 
    0.895365 1.030317e-01 3.855600e-14 0 
    0.897429 1.071798e-01 3.992400e-14 0 
    0.899498 1.072134e-01 3.975300e-14 0 
    0.901571 1.084885e-01 4.004100e-14 0 
    0.903650 9.988992e-02 3.669800e-14 0 
    0.905733 1.024839e-01 3.747800e-14 0 
    0.907820 1.041819e-01 3.792400e-14 0 
    0.909913 1.061532e-01 3.846400e-14 0 
    0.912011 1.025815e-01 3.699900e-14 0 
    0.914113 1.016733e-01 3.650300e-14 0 
    0.916220 1.060097e-01 3.788500e-14 0 
    0.918333 1.003429e-01 3.569500e-14 0 
    0.920450 1.126220e-01 3.987900e-14 0 
    0.922571 1.103499e-01 3.889500e-14 0 
    0.924698 1.006727e-01 3.532100e-14 0 
    0.926830 1.061827e-01 3.708300e-14 0 
    0.928966 1.127682e-01 3.920200e-14 0 
    0.931108 1.074802e-01 3.719200e-14 0 
    0.933254 1.090097e-01 3.754800e-14 0 
    0.935406 1.082968e-01 3.713100e-14 0 
    0.937562 1.075865e-01 3.671800e-14 0 
    0.939723 1.073736e-01 3.647700e-14 0 
    0.941890 1.089015e-01 3.682600e-14 0 
    0.944061 1.138098e-01 3.830900e-14 0 
    0.946237 1.087241e-01 3.642900e-14 0 
    0.948418 1.157352e-01 3.860000e-14 0 
    0.950605 1.157726e-01 3.843500e-14 0 
    0.952796 1.144852e-01 3.783300e-14 0 
    0.954993 1.169229e-01 3.846100e-14 0 
    0.957194 1.156209e-01 3.785800e-14 0 
    0.959401 1.189007e-01 3.875300e-14 0 
    0.961612 1.178496e-01 3.823400e-14 0 
    0.963829 1.211930e-01 3.913800e-14 0 
    0.966051 1.217928e-01 3.915100e-14 0 
    0.968278 1.198861e-01 3.836100e-14 0 
    0.970510 1.215948e-01 3.872900e-14 0 
    0.972747 1.213549e-01 3.847500e-14 0 
    0.974990 1.239368e-01 3.911300e-14 0 
    0.977237 1.228438e-01 3.859000e-14 0 
    0.979490 1.243064e-01 3.887000e-14 0 
    0.981748 1.223613e-01 3.808600e-14 0 
    0.984011 1.232521e-01 3.818700e-14 0 
    0.986279 1.255848e-01 3.873100e-14 0 
    0.988553 1.239039e-01 3.803700e-14 0 
    0.990832 1.230948e-01 3.761500e-14 0 
    0.993116 1.239885e-01 3.771400e-14 0 
    0.995405 1.226120e-01 3.712400e-14 0 
    0.997700 1.266720e-01 3.817700e-14 0 
    1.000000 1.261333e-01 3.784000e-14 0 
    1.002305 1.273450e-01 3.802800e-14 0 
    1.004615 1.270950e-01 3.777900e-14 0 
    1.006931 1.274350e-01 3.770600e-14 0 
    1.009253 1.260202e-01 3.711600e-14 0 
    1.011580 1.284063e-01 3.764500e-14 0 
    1.013912 1.290436e-01 3.765800e-14 0 
    1.016249 1.293879e-01 3.758500e-14 0 
    1.020939 1.309775e-01 3.769800e-14 0 
    1.025652 1.307659e-01 3.729200e-14 0 
    1.030386 1.332923e-01 3.766400e-14 0 
    1.035142 1.330791e-01 3.725900e-14 0 
    1.039921 1.347181e-01 3.737200e-14 0 
    1.044720 1.363754e-01 3.748500e-14 0 
    1.047129 1.364239e-01 3.732600e-14 0 
    1.069054 1.381357e-01 3.626000e-14 0 
    1.088931 1.375178e-01 3.479200e-14 0 
    1.109175 1.381551e-01 3.368900e-14 0 
    1.129796 1.365747e-01 3.209900e-14 0 
    1.150800 1.384730e-01 3.136800e-14 0 
    1.169499 1.416966e-01 3.108000e-14 0 
    1.191243 1.426817e-01 3.016400e-14 0 
    1.210599 1.420265e-01 2.907300e-14 0 
    1.230269 1.433394e-01 2.841100e-14 0 
    1.250259 1.456697e-01 2.795700e-14 0 
    1.270574 1.460026e-01 2.713200e-14 0 
    1.291219 1.470178e-01 2.645400e-14 0 
    1.312200 1.483734e-01 2.585100e-14 0 
    1.333521 1.500926e-01 2.532100e-14 0 
    1.352073 1.494046e-01 2.451800e-14 0 
    1.374042 1.511337e-01 2.401500e-14 0 
    1.393157 1.525343e-01 2.357700e-14 0 
    1.412538 1.507887e-01 2.267200e-14 0 
    1.435490 1.490592e-01 2.170100e-14 0 
    1.455459 1.507849e-01 2.135400e-14 0 
    1.475707 1.557281e-01 2.145300e-14 0 
    1.496236 1.543002e-01 2.067700e-14 0 
    1.517051 1.604567e-01 2.091600e-14 0 
    1.534617 1.649555e-01 2.101300e-14 0 
    1.555965 1.723287e-01 2.135400e-14 0 
    1.577611 1.751325e-01 2.111000e-14 0 
    1.595879 1.763425e-01 2.077200e-14 0 
    1.618080 1.755317e-01 2.011300e-14 0 
    1.636817 1.800402e-01 2.016000e-14 0 
    1.659586 1.833855e-01 1.997500e-14 0 
    1.678804 1.850832e-01 1.970100e-14 0 
    1.698244 1.867988e-01 1.943100e-14 0 
    1.717909 1.880905e-01 1.912000e-14 0 
    1.737800 1.872268e-01 1.859900e-14 0 
    1.757923 1.842330e-01 1.788500e-14 0 
    1.778279 1.817044e-01 1.723800e-14 0 
    1.798871 1.783864e-01 1.653800e-14 0 
    1.819702 1.751355e-01 1.586700e-14 0 
    1.840771 1.707547e-01 1.511800e-14 0 
    1.862087 1.699704e-01 1.470600e-14 0 
    1.883649 1.676375e-01 1.417400e-14 0 
    1.901077 1.634414e-01 1.356700e-14 0 
    1.923091 1.619476e-01 1.313700e-14 0 
    1.940886 1.619450e-01 1.289700e-14 0 
    1.963361 1.597166e-01 1.243000e-14 0 
    1.981527 1.560894e-01 1.192600e-14 0 
    2.004472 1.543011e-01 1.152100e-14 0 
    2.023020 1.518358e-01 1.113000e-14 0 
    2.046444 1.525385e-01 1.092700e-14 0 
    2.065380 1.497436e-01 1.053100e-14 0 
    2.084490 1.500942e-01 1.036300e-14 0 
    2.103778 1.487244e-01 1.008100e-14 0 
    2.128139 1.483768e-01 9.828500e-15 0 
    2.147829 1.483764e-01 9.649100e-15 0 
    2.167704 1.473541e-01 9.407700e-15 0 
    2.187762 1.466778e-01 9.193600e-15 0 
    2.208004 1.446659e-01 8.902000e-15 0 
    2.228435 1.443329e-01 8.719400e-15 0 
    2.249056 1.423527e-01 8.442800e-15 0 
    2.269865 1.410473e-01 8.212700e-15 0 
    2.290868 1.400764e-01 8.007300e-15 0 
    2.306747 1.378373e-01 7.771200e-15 0 
    2.328092 1.257081e-01 6.958000e-15 0 
    2.349632 1.265802e-01 6.878400e-15 0 
    2.371374 1.122958e-01 5.990800e-15 0 
    2.387810 1.072421e-01 5.642700e-15 0 
    2.409905 1.105001e-01 5.708000e-15 0 
    2.432205 1.031251e-01 5.229800e-15 0 
    2.449063 1.012427e-01 5.063900e-15 0 
    2.471725 1.014755e-01 4.982900e-15 0 
    2.494594 9.602087e-02 4.629000e-15 0 
    2.511887 9.557956e-02 4.544500e-15 0 
    2.535128 8.153775e-02 3.806100e-15 0 
    2.552702 8.116470e-02 3.736700e-15 0 
    2.576320 8.324657e-02 3.762600e-15 0 
    2.594179 8.363078e-02 3.728100e-15 0 
    2.612160 8.617246e-02 3.788700e-15 0 
    2.636331 8.617141e-02 3.719500e-15 0 
    2.654604 8.717042e-02 3.711000e-15 0 
    2.673007 8.597300e-02 3.609800e-15 0 
    2.697741 8.656950e-02 3.568500e-15 0 
    2.716439 8.597321e-02 3.495300e-15 0 
    2.735267 8.577503e-02 3.439400e-15 0 
    2.754229 8.538045e-02 3.376600e-15 0 
    2.779712 8.498963e-02 3.299800e-15 0 
    2.798981 8.498904e-02 3.254500e-15 0 
    2.818382 8.401604e-02 3.173100e-15 0 
    2.837920 8.401713e-02 3.129600e-15 0 
    2.857590 8.324510e-02 3.058300e-15 0 
    2.877399 8.305368e-02 3.009400e-15 0 
    2.897343 8.229223e-02 2.940900e-15 0 
    2.917428 8.172633e-02 2.880600e-15 0 
    2.937649 8.135007e-02 2.828000e-15 0 
    2.958014 8.097692e-02 2.776400e-15 0 
    2.978516 8.023437e-02 2.713200e-15 0 
    2.999164 7.968357e-02 2.657600e-15 0 
    3.019952 7.950000e-02 2.615100e-15 0 
    3.040884 7.877190e-02 2.555600e-15 0 
    3.061964 7.858960e-02 2.514700e-15 0 
    3.083187 7.822838e-02 2.468800e-15 0 
    3.104560 7.822759e-02 2.434900e-15 0 
    3.126079 7.804865e-02 2.396000e-15 0 
    3.140510 7.751177e-02 2.357700e-15 0 
    3.162278 7.751001e-02 2.325300e-15 0 
    3.184196 7.751007e-02 2.293400e-15 0 
    3.206270 7.715607e-02 2.251600e-15 0 
    3.221068 7.662489e-02 2.215600e-15 0 
    3.243397 7.662494e-02 2.185200e-15 0 
    3.265878 7.644648e-02 2.150200e-15 0 
    3.288518 7.627361e-02 2.115900e-15 0 
    3.303696 7.592062e-02 2.086800e-15 0 
    3.326594 7.574834e-02 2.053500e-15 0 
    3.349655 7.592328e-02 2.030000e-15 0 
    3.365115 7.539895e-02 1.997500e-15 0 
    3.388443 7.470659e-02 1.952000e-15 0 
    3.404082 7.402270e-02 1.916400e-15 0 
    3.427677 7.351330e-02 1.877100e-15 0 
    3.451438 7.317404e-02 1.842800e-15 0 
    3.467368 7.233623e-02 1.805000e-15 0 
    3.491405 7.217239e-02 1.776200e-15 0 
    3.507520 7.151147e-02 1.743800e-15 0 
    3.531830 7.101764e-02 1.708000e-15 0 
    3.548136 7.036562e-02 1.676800e-15 0 
    3.572728 7.004244e-02 1.646200e-15 0 
    3.589218 6.923907e-02 1.612400e-15 0 
    3.614099 6.892229e-02 1.583000e-15 0 
    3.630780 6.813188e-02 1.550500e-15 0 
    3.655950 6.781894e-02 1.522200e-15 0 
    3.672823 6.735372e-02 1.497900e-15 0 
    3.689775 6.658369e-02 1.467200e-15 0 
    3.715354 6.612507e-02 1.437100e-15 0 
    3.732502 6.552018e-02 1.410900e-15 0 
    3.749729 6.462190e-02 1.378800e-15 0 
    3.775723 6.417614e-02 1.350500e-15 0 
    3.793150 6.373399e-02 1.328900e-15 0 
    3.810657 6.285703e-02 1.298600e-15 0 
    3.837073 6.285795e-02 1.280800e-15 0 
    3.854783 6.213685e-02 1.254500e-15 0 
    3.872575 6.156702e-02 1.231600e-15 0 
    3.899421 6.128824e-02 1.209200e-15 0 
    3.917418 6.072477e-02 1.187100e-15 0 
    3.935499 6.002691e-02 1.162700e-15 0 
    3.953667 5.947780e-02 1.141500e-15 0 
    3.981071 5.920631e-02 1.120700e-15 0 
    3.999450 5.866120e-02 1.100200e-15 0 
    4.017909 5.799317e-02 1.077700e-15 0 
    4.036454 5.745983e-02 1.058000e-15 0 
    4.055084 5.667049e-02 1.033900e-15 0 
    4.083195 5.654194e-02 1.017400e-15 0 
    4.102040 5.615080e-02 1.001100e-15 0 
    4.120973 5.550930e-02 9.805900e-16 0 
    4.139998 5.500035e-02 9.626900e-16 0 
    4.159106 5.462183e-02 9.473000e-16 0 
    4.178302 5.424556e-02 9.321500e-16 0 
    4.197591 5.374852e-02 9.151400e-16 0 
    4.216965 5.325531e-02 8.984300e-16 0 
    4.246193 5.313306e-02 8.840700e-16 0 
    4.265796 5.264579e-02 8.679300e-16 0 
    4.285485 5.216320e-02 8.520900e-16 0 
    4.305264 5.192355e-02 8.404000e-16 0 
    4.325140 5.144754e-02 8.250600e-16 0 
    4.345102 5.121113e-02 8.137400e-16 0 
    4.365157 4.947272e-02 7.789100e-16 0 
    4.385309 4.768310e-02 7.438500e-16 0 
    4.405549 4.299904e-02 6.646300e-16 0 
    4.425883 4.276287e-02 6.549200e-16 0 
    4.446310 4.251600e-02 6.451700e-16 0 
    4.466837 4.225768e-02 6.353700e-16 0 
    4.487454 4.198816e-02 6.255300e-16 0 
    4.508165 4.175948e-02 6.164200e-16 0 
    4.528977 4.152170e-02 6.072900e-16 0 
    4.549880 4.127378e-02 5.981300e-16 0 
    4.570880 4.101424e-02 5.889200e-16 0 
    4.591982 4.077879e-02 5.801700e-16 0 
    4.613176 4.055028e-02 5.716300e-16 0 
    4.623810 4.043172e-02 5.673400e-16 0 
    4.645151 4.018724e-02 5.587400e-16 0 
    4.666595 3.993196e-02 5.501000e-16 0 
    4.688134 3.971094e-02 5.420400e-16 0 
    4.709772 3.948609e-02 5.340300e-16 0 
    4.731515 3.925079e-02 5.259800e-16 0 
    4.753353 3.900541e-02 5.179000e-16 0 
    4.775292 3.877797e-02 5.101600e-16 0 
    4.786299 3.867134e-02 5.064200e-16 0 
    4.808395 3.844966e-02 4.989000e-16 0 
    4.830588 3.821893e-02 4.913600e-16 0 
    4.852884 3.797672e-02 4.837700e-16 0 
    4.875287 3.776327e-02 4.766400e-16 0 
    4.897789 3.755054e-02 4.696100e-16 0 
    4.909079 3.744029e-02 4.660800e-16 0 
    4.931736 3.721269e-02 4.590000e-16 0 
    4.954504 3.697531e-02 4.518900e-16 0 
    4.977371 3.677403e-02 4.453100e-16 0 
    5.000344 3.656503e-02 4.387200e-16 0 
    5.011870 3.645665e-02 4.354100e-16 0 
    5.035008 3.623293e-02 4.287700e-16 0 
    5.058246 3.600783e-02 4.222000e-16 0 
    5.081593 3.581076e-02 4.160400e-16 0 
    5.093306 3.570884e-02 4.129500e-16 0 
    5.116820 3.549822e-02 4.067500e-16 0 
    5.140436 3.527879e-02 4.005300e-16 0 
    5.152285 3.516466e-02 3.974000e-16 0 
    5.164162 3.506561e-02 3.944600e-16 0 
    5.176071 3.497033e-02 3.915800e-16 0 
    5.188002 3.487244e-02 3.886900e-16 0 
    5.199961 3.477202e-02 3.857900e-16 0 
    5.211947 3.466991e-02 3.828900e-16 0 
    5.223961 3.456522e-02 3.799800e-16 0 
    5.236003 3.445791e-02 3.770600e-16 0 
    5.248072 3.434887e-02 3.741400e-16 0 
    5.260175 3.424001e-02 3.712400e-16 0 
    5.272300 3.414879e-02 3.685500e-16 0 
    5.284453 3.405415e-02 3.658400e-16 0 
    5.296634 3.395790e-02 3.631300e-16 0 
    5.308843 3.386004e-02 3.604200e-16 0 
    5.321080 3.375866e-02 3.576900e-16 0 
    5.333352 3.365570e-02 3.549600e-16 0 
    5.345646 3.355100e-02 3.522300e-16 0 
    5.357968 3.344366e-02 3.494900e-16 0 
    5.370318 3.334517e-02 3.468600e-16 0 
    5.382697 3.325473e-02 3.443300e-16 0 
    5.395105 3.316179e-02 3.417900e-16 0 
    5.407541 3.306726e-02 3.392500e-16 0 
    5.420011 3.297025e-02 3.367000e-16 0 
    5.432505 3.287157e-02 3.341500e-16 0 
    5.445027 3.277029e-02 3.315900e-16 0 
    5.457579 3.266639e-02 3.290200e-16 0 
    5.470159 3.256082e-02 3.264500e-16 0 
    5.482768 3.247262e-02 3.240700e-16 0 
    5.495406 3.238392e-02 3.217000e-16 0 
    5.508079 3.229276e-02 3.193200e-16 0 
    5.520776 3.220002e-02 3.169400e-16 0 
    5.533502 3.210470e-02 3.145500e-16 0 
    5.546257 3.200679e-02 3.121500e-16 0 
    5.559041 3.190728e-02 3.097500e-16 0 
    5.571855 3.180515e-02 3.073400e-16 0 
    5.584705 3.170875e-02 3.050000e-16 0 
    5.597578 3.162323e-02 3.027800e-16 0 
    5.610481 3.153520e-02 3.005500e-16 0 
    5.623413 3.144569e-02 2.983200e-16 0 
    5.636376 3.135468e-02 2.960900e-16 0 
    5.649368 3.126109e-02 2.938500e-16 0 
    5.662390 3.116491e-02 2.916000e-16 0 
    5.675448 3.106723e-02 2.893500e-16 0 
    5.688531 3.096685e-02 2.870900e-16 0 
    5.701643 3.087896e-02 2.849600e-16 0 
    5.714786 3.079505e-02 2.828800e-16 0 
    5.727959 3.070861e-02 2.807900e-16 0 
    5.741162 3.062071e-02 2.787000e-16 0 
    5.754402 3.053032e-02 2.766000e-16 0 
    5.767667 3.043838e-02 2.745000e-16 0 
    5.780962 3.034493e-02 2.724000e-16 0 
    5.794287 3.024772e-02 2.702800e-16 0 
    5.807643 3.015235e-02 2.681900e-16 0 
    5.821030 3.007127e-02 2.662400e-16 0 
    5.834448 2.998880e-02 2.642900e-16 0 
    5.847904 2.990385e-02 2.623300e-16 0 
    5.861383 2.981740e-02 2.603700e-16 0 
    5.874894 2.972839e-02 2.584000e-16 0 
    5.888436 2.963790e-02 2.564300e-16 0 
    5.902009 2.954479e-02 2.544500e-16 0 
    5.915614 2.945020e-02 2.524700e-16 0 
    5.929250 2.936464e-02 2.505800e-16 0 
    5.942924 2.928479e-02 2.487500e-16 0 
    5.956623 2.920352e-02 2.469200e-16 0 
    5.970353 2.911969e-02 2.450800e-16 0 
    5.984115 2.903445e-02 2.432400e-16 0 
    5.997909 2.894661e-02 2.413900e-16 0 
    6.011735 2.885856e-02 2.395500e-16 0 
    6.025599 2.876670e-02 2.376900e-16 0 
    6.039488 2.867332e-02 2.358300e-16 0 
    6.053410 2.859558e-02 2.341100e-16 0 
    6.067363 2.851772e-02 2.324000e-16 0 
    6.081349 2.843731e-02 2.306800e-16 0 
    6.095367 2.835555e-02 2.289600e-16 0 
    6.109417 2.827118e-02 2.272300e-16 0 
    6.123506 2.818549e-02 2.255000e-16 0 
    6.137621 2.809835e-02 2.237700e-16 0 
    6.151769 2.800854e-02 2.220300e-16 0 
    6.165950 2.792364e-02 2.203400e-16 0 
    6.180162 2.784754e-02 2.187300e-16 0 
    6.194408 2.777014e-02 2.171200e-16 0 
    6.208693 2.769150e-02 2.155100e-16 0 
    6.223005 2.761149e-02 2.139000e-16 0 
    6.237350 2.752885e-02 2.122800e-16 0 
    6.251727 2.744354e-02 2.106500e-16 0 
    6.266138 2.735818e-02 2.090300e-16 0 
    6.280582 2.727013e-02 2.074000e-16 0 
    6.295059 2.719257e-02 2.058600e-16 0 
    6.309576 2.711908e-02 2.043600e-16 0 
    6.324120 2.704294e-02 2.028500e-16 0 
    6.338698 2.696553e-02 2.013400e-16 0 
    6.353309 2.688547e-02 1.998200e-16 0 
    6.367954 2.680410e-02 1.983000e-16 0 
    6.382632 2.672141e-02 1.967800e-16 0 
    6.397352 2.663744e-02 1.952600e-16 0 
    6.412098 2.655344e-02 1.937500e-16 0 
    6.426879 2.648187e-02 1.923400e-16 0 
    6.441693 2.640906e-02 1.909300e-16 0 
    6.456541 2.633363e-02 1.895100e-16 0 
    6.471424 2.625694e-02 1.880900e-16 0 
    6.486341 2.617899e-02 1.866700e-16 0 
    6.501300 2.609981e-02 1.852500e-16 0 
    6.516286 2.601787e-02 1.838200e-16 0 
    6.531306 2.593462e-02 1.823900e-16 0 
    6.546361 2.585861e-02 1.810200e-16 0 
    6.561452 2.578854e-02 1.797000e-16 0 
    6.576576 2.571725e-02 1.783800e-16 0 
    6.591735 2.564332e-02 1.770500e-16 0 
    6.606937 2.556821e-02 1.757200e-16 0 
    6.622166 2.549179e-02 1.743900e-16 0 
    6.637431 2.541268e-02 1.730500e-16 0 
    6.652731 2.533228e-02 1.717100e-16 0 
    6.668066 2.525059e-02 1.703700e-16 0 
    6.683436 2.518251e-02 1.691300e-16 0 
    6.698849 2.511331e-02 1.678900e-16 0 
    6.714291 2.504288e-02 1.666500e-16 0 
    6.729768 2.496976e-02 1.654000e-16 0 
    6.745280 2.489694e-02 1.641600e-16 0 
    6.760829 2.482141e-02 1.629100e-16 0 
    6.776412 2.474310e-02 1.616500e-16 0 
    6.792033 2.466509e-02 1.604000e-16 0 
    6.807696 2.458897e-02 1.591700e-16 0 
    6.823389 2.452399e-02 1.580200e-16 0 
    6.839117 2.445476e-02 1.568500e-16 0 
    6.854882 2.438594e-02 1.556900e-16 0 
    6.870683 2.431438e-02 1.545200e-16 0 
    6.886520 2.424165e-02 1.533500e-16 0 
    6.902402 2.416779e-02 1.521800e-16 0 
    6.918312 2.409106e-02 1.510000e-16 0 
    6.934259 2.401473e-02 1.498300e-16 0 
    6.950243 2.394683e-02 1.487200e-16 0 
    6.966264 2.388104e-02 1.476300e-16 0 
    6.982322 2.381413e-02 1.465400e-16 0 
    6.998416 2.374608e-02 1.454500e-16 0 
    7.014556 2.367532e-02 1.443500e-16 0 
    7.030725 2.360500e-02 1.432600e-16 0 
    7.046931 2.353186e-02 1.421600e-16 0 
    7.063175 2.345754e-02 1.410600e-16 0 
    7.079456 2.338205e-02 1.399600e-16 0 
    7.095775 2.332045e-02 1.389500e-16 0 
    7.112139 2.325616e-02 1.379300e-16 0 
    7.128533 2.319072e-02 1.369100e-16 0 
    7.144965 2.312248e-02 1.358800e-16 0 
    7.161434 2.305483e-02 1.348600e-16 0 
    7.177942 2.298434e-02 1.338300e-16 0 
    7.194488 2.291272e-02 1.328000e-16 0 
    7.211072 2.283821e-02 1.317600e-16 0 
    7.227702 2.277128e-02 1.307700e-16 0 
    7.244362 2.271018e-02 1.298200e-16 0 
    7.261061 2.264629e-02 1.288600e-16 0 
    7.277798 2.258132e-02 1.279000e-16 0 
    7.294573 2.251526e-02 1.269400e-16 0 
    7.311388 2.244812e-02 1.259800e-16 0 
    7.328241 2.237809e-02 1.250100e-16 0 
    7.345141 2.230878e-02 1.240500e-16 0 
    7.362073 2.223650e-02 1.230800e-16 0 
    7.379043 2.217578e-02 1.221800e-16 0 
    7.396052 2.211585e-02 1.212900e-16 0 
    7.413101 2.205306e-02 1.203900e-16 0 
    7.430188 2.198923e-02 1.194900e-16 0 
    7.447323 2.192437e-02 1.185900e-16 0 
    7.464490 2.185841e-02 1.176900e-16 0 
    7.481696 2.178950e-02 1.167800e-16 0 
    7.498942 2.171950e-02 1.158700e-16 0 
    7.516227 2.165403e-02 1.149900e-16 0 
    7.533553 2.159506e-02 1.141500e-16 0 
    7.550919 2.153509e-02 1.133100e-16 0 
    7.568332 2.147414e-02 1.124700e-16 0 
    7.585778 2.141213e-02 1.116300e-16 0 
    7.603263 2.134716e-02 1.107800e-16 0 
    7.620790 2.128308e-02 1.099400e-16 0 
    7.638356 2.121600e-02 1.090900e-16 0 
    7.655963 2.114785e-02 1.082400e-16 0 
    7.673619 2.108848e-02 1.074400e-16 0 
    7.691307 2.103003e-02 1.066500e-16 0 
    7.709036 2.097060e-02 1.058600e-16 0 
    7.726806 2.091017e-02 1.050700e-16 0 
    7.744617 2.084873e-02 1.042800e-16 0 
    7.762469 2.078629e-02 1.034900e-16 0 
    7.780362 2.072282e-02 1.027000e-16 0 
    7.798305 2.065634e-02 1.019000e-16 0 
    7.816280 2.059079e-02 1.011100e-16 0 
    7.834298 2.053648e-02 1.003800e-16 0 
    7.852356 2.047938e-02 9.964100e-17 0 
    7.870456 2.042152e-02 9.890300e-17 0 
    7.888598 2.036227e-02 9.816300e-17 0 
    7.906782 2.030184e-02 9.742200e-17 0 
    7.925016 2.023982e-02 9.667800e-17 0 
    7.943284 2.017655e-02 9.593300e-17 0 
    7.961594 2.011184e-02 9.518600e-17 0 
    7.979946 2.005290e-02 9.447100e-17 0 
    7.998341 1.999853e-02 9.378200e-17 0 
    8.016777 1.994280e-02 9.309100e-17 0 
    8.035265 1.988595e-02 9.239900e-17 0 
    8.053787 1.982768e-02 9.170500e-17 0 
    8.072352 1.976803e-02 9.100900e-17 0 
    8.090959 1.970717e-02 9.031200e-17 0 
    8.109609 1.964489e-02 8.961300e-17 0 
    8.128302 1.958140e-02 8.891300e-17 0 
    8.147038 1.952841e-02 8.826500e-17 0 
    8.165827 1.947478e-02 8.761800e-17 0 
    8.184650 1.941996e-02 8.697000e-17 0 
    8.203516 1.936401e-02 8.632100e-17 0 
    8.222426 1.930667e-02 8.567000e-17 0 
    8.241379 1.924817e-02 8.501800e-17 0 
    8.260376 1.918826e-02 8.436400e-17 0 
    8.279426 1.912720e-02 8.370900e-17 0 
    8.298510 1.906879e-02 8.307000e-17 0 
    8.317639 1.901729e-02 8.246500e-17 0 
    8.336812 1.896467e-02 8.185900e-17 0 
    8.356029 1.891069e-02 8.125100e-17 0 
    8.375290 1.885557e-02 8.064200e-17 0 
    8.394596 1.879931e-02 8.003200e-17 0 
    8.413955 1.874170e-02 7.942000e-17 0 
    8.433350 1.868288e-02 7.880700e-17 0 
    8.452789 1.862263e-02 7.819200e-17 0 
    8.472273 1.857005e-02 7.761300e-17 0 
    8.491803 1.851947e-02 7.704600e-17 0 
    8.511377 1.846779e-02 7.647800e-17 0 
    8.531005 1.841454e-02 7.590700e-17 0 
    8.550670 1.836038e-02 7.533600e-17 0 
    8.570380 1.830507e-02 7.476400e-17 0 
    8.590135 1.824837e-02 7.419000e-17 0 
    8.609937 1.819051e-02 7.361500e-17 0 
    8.629783 1.813297e-02 7.304500e-17 0 
    8.649675 1.808424e-02 7.251400e-17 0 
    8.669623 1.803446e-02 7.198200e-17 0 
    8.689607 1.798354e-02 7.144900e-17 0 
    8.709637 1.793126e-02 7.091400e-17 0 
    8.729713 1.787812e-02 7.037900e-17 0 
    8.749836 1.782359e-02 6.984200e-17 0 
    8.770005 1.776792e-02 6.930400e-17 0 
    8.790220 1.771085e-02 6.876400e-17 0 
    8.810492 1.765886e-02 6.824700e-17 0 
    8.830801 1.761091e-02 6.774900e-17 0 
    8.851157 1.756188e-02 6.725000e-17 0 
    8.871559 1.751177e-02 6.675000e-17 0 
    8.892009 1.746055e-02 6.624900e-17 0 
    8.912505 1.740795e-02 6.574600e-17 0 
    8.933059 1.735454e-02 6.524300e-17 0 
    8.953651 1.729969e-02 6.473800e-17 0 
    8.974289 1.724369e-02 6.423200e-17 0 
    8.994976 1.719706e-02 6.376400e-17 0 
    9.015710 1.714991e-02 6.329700e-17 0 
    9.036491 1.710167e-02 6.282900e-17 0 
    9.057321 1.705236e-02 6.236000e-17 0 
    9.078209 1.700171e-02 6.188900e-17 0 
    9.099135 1.695019e-02 6.141800e-17 0 
    9.120109 1.689756e-02 6.094600e-17 0 
    9.141132 1.684353e-02 6.047200e-17 0 
    9.162202 1.679227e-02 6.001100e-17 0 
    9.183322 1.674693e-02 5.957400e-17 0 
    9.204501 1.670057e-02 5.913600e-17 0 
    9.225717 1.665309e-02 5.869700e-17 0 
    9.246984 1.660455e-02 5.825700e-17 0 
    9.268298 1.655491e-02 5.781600e-17 0 
    9.289662 1.650417e-02 5.737400e-17 0 
    9.311076 1.645232e-02 5.693100e-17 0 
    9.332538 1.639936e-02 5.648700e-17 0 
    9.354061 1.635317e-02 5.606900e-17 0 
    9.375623 1.630851e-02 5.565900e-17 0 
    9.397234 1.626280e-02 5.524800e-17 0 
    9.418895 1.621632e-02 5.483700e-17 0 
    9.440607 1.616848e-02 5.442400e-17 0 
    9.462368 1.611984e-02 5.401100e-17 0 
    9.484190 1.606984e-02 5.359600e-17 0 
    9.506052 1.601871e-02 5.318000e-17 0 
    9.527963 1.596827e-02 5.276900e-17 0 
    9.549927 1.592523e-02 5.238500e-17 0 
    9.571940 1.588146e-02 5.200100e-17 0 
    9.594004 1.583663e-02 5.161600e-17 0 
    9.616119 1.579075e-02 5.123000e-17 0 
    9.638295 1.574352e-02 5.084200e-17 0 
    9.660512 1.569579e-02 5.045500e-17 0 
    9.682780 1.564666e-02 5.006600e-17 0 
    9.705099 1.559643e-02 4.967600e-17 0 
    9.727470 1.555077e-02 4.930300e-17 0 
    9.749893 1.550847e-02 4.894300e-17 0 
    9.772367 1.546545e-02 4.858300e-17 0 
    9.794904 1.542110e-02 4.822100e-17 0 
    9.817482 1.537597e-02 4.785900e-17 0 
    9.840112 1.532978e-02 4.749600e-17 0 
    9.862794 1.528250e-02 4.713200e-17 0 
    9.885528 1.523447e-02 4.676800e-17 0 
    9.908315 1.518501e-02 4.640200e-17 0 
    9.931166 1.514401e-02 4.606400e-17 0 
    9.954058 1.510227e-02 4.572600e-17 0 
    9.977002 1.505983e-02 4.538800e-17 0 
   10.000000 1.501633e-02 4.504900e-17 0 
   10.023051 1.497212e-02 4.471000e-17 0 
   10.046155 1.492650e-02 4.436900e-17 0 
   10.069312 1.488015e-02 4.402800e-17 0 
   10.092534 1.483274e-02 4.368600e-17 0 
   10.115797 1.478761e-02 4.335300e-17 0 
   10.139115 1.474758e-02 4.303700e-17 0 
   10.162486 1.470686e-02 4.272100e-17 0 
   10.185912 1.466511e-02 4.240400e-17 0 
   10.209391 1.462231e-02 4.208600e-17 0 
   10.232935 1.457849e-02 4.176700e-17 0 
   10.256523 1.453391e-02 4.144800e-17 0 
   10.280165 1.448827e-02 4.112800e-17 0 
   10.303862 1.444154e-02 4.080700e-17 0 
   10.327612 1.440082e-02 4.050500e-17 0 
   10.351419 1.436157e-02 4.020900e-17 0 
   10.375279 1.432128e-02 3.991200e-17 0 
   10.399206 1.428035e-02 3.961500e-17 0 
   10.423177 1.423834e-02 3.931700e-17 0 
   10.447203 1.419528e-02 3.901800e-17 0 
   10.471285 1.415115e-02 3.871800e-17 0 
   10.495422 1.410631e-02 3.841800e-17 0 
   10.519615 1.406186e-02 3.812100e-17 0 
   10.543863 1.402411e-02 3.784400e-17 0 
   10.568179 1.398537e-02 3.756600e-17 0 
   10.592540 1.394595e-02 3.728800e-17 0 
   10.616956 1.390549e-02 3.700900e-17 0 
   10.641429 1.386397e-02 3.672900e-17 0 
   10.665959 1.382179e-02 3.644900e-17 0 
   10.690544 1.377853e-02 3.616800e-17 0 
   10.715198 1.373461e-02 3.588700e-17 0 
   10.739898 1.369419e-02 3.561700e-17 0 
   10.764654 1.365697e-02 3.535700e-17 0 
   10.789467 1.361911e-02 3.509700e-17 0 
   10.814338 1.358022e-02 3.483600e-17 0 
   10.839266 1.354029e-02 3.457400e-17 0 
   10.864251 1.349971e-02 3.431200e-17 0 
   10.889305 1.345809e-02 3.404900e-17 0 
   10.914406 1.341577e-02 3.378600e-17 0 
   10.939565 1.337238e-02 3.352200e-17 0 
   10.964781 1.333592e-02 3.327700e-17 0 
   10.990055 1.329923e-02 3.303300e-17 0 
   11.015388 1.326192e-02 3.278900e-17 0 
   11.040792 1.322361e-02 3.254400e-17 0 
   11.066241 1.318463e-02 3.229900e-17 0 
   11.091750 1.314461e-02 3.205300e-17 0 
   11.117317 1.310393e-02 3.180700e-17 0 
   11.142944 1.306176e-02 3.155900e-17 0 
   11.168629 1.302226e-02 3.131900e-17 0 
   11.194373 1.298712e-02 3.109100e-17 0 
   11.220190 1.295100e-02 3.086200e-17 0 
   11.246053 1.291423e-02 3.063300e-17 0 
   11.271976 1.287642e-02 3.040300e-17 0 
   11.297959 1.283800e-02 3.017300e-17 0 
   11.324001 1.279893e-02 2.994300e-17 0 
   11.350104 1.275839e-02 2.971100e-17 0 
   11.376279 1.271764e-02 2.948000e-17 0 
   11.402502 1.268143e-02 2.926100e-17 0 
   11.428786 1.264679e-02 2.904700e-17 0 
   11.455130 1.261155e-02 2.883300e-17 0 
   11.481534 1.257529e-02 2.861800e-17 0 
   11.508001 1.253842e-02 2.840300e-17 0 
   11.534527 1.250049e-02 2.818700e-17 0 
   11.561128 1.246198e-02 2.797100e-17 0 
   11.587777 1.242237e-02 2.775400e-17 0 
   11.614488 1.238303e-02 2.753900e-17 0 
   11.641260 1.234984e-02 2.733900e-17 0 
   11.668094 1.231562e-02 2.713800e-17 0 
   11.694990 1.228083e-02 2.693700e-17 0 
   11.721948 1.224545e-02 2.673600e-17 0 
   11.748980 1.220905e-02 2.653400e-17 0 
   11.776062 1.217156e-02 2.633100e-17 0 
   11.803207 1.213347e-02 2.612800e-17 0 
   11.830414 1.209476e-02 2.592500e-17 0 
   11.857684 1.205919e-02 2.573000e-17 0 
   11.885017 1.202681e-02 2.554300e-17 0 
   11.912426 1.199294e-02 2.535400e-17 0 
   11.939885 1.195896e-02 2.516600e-17 0 
   11.967407 1.192392e-02 2.497700e-17 0 
   11.994993 1.188783e-02 2.478700e-17 0 
   12.022642 1.185164e-02 2.459800e-17 0 
   12.050355 1.181389e-02 2.440700e-17 0 
   12.078132 1.177554e-02 2.421600e-17 0 
   12.105987 1.174393e-02 2.404000e-17 0 
   12.133891 1.171176e-02 2.386400e-17 0 
   12.161861 1.167855e-02 2.368700e-17 0 
   12.189895 1.164528e-02 2.351100e-17 0 
   12.217994 1.161045e-02 2.333300e-17 0 
   12.246157 1.157556e-02 2.315600e-17 0 
   12.274398 1.153911e-02 2.297700e-17 0 
   12.302692 1.150257e-02 2.279900e-17 0 
   12.331051 1.146747e-02 2.262500e-17 0 
   12.359474 1.143638e-02 2.246000e-17 0 
   12.387964 1.140476e-02 2.229500e-17 0 
   12.416520 1.137261e-02 2.213000e-17 0 
   12.445140 1.133939e-02 2.196400e-17 0 
   12.473841 1.130566e-02 2.179800e-17 0 
   12.502594 1.127082e-02 2.163100e-17 0 
   12.531413 1.123543e-02 2.146400e-17 0 
   12.560299 1.119946e-02 2.129700e-17 0 
   12.589252 1.116768e-02 2.113900e-17 0 
   12.618270 1.113696e-02 2.098400e-17 0 
   12.647370 1.110574e-02 2.082900e-17 0 
   12.676523 1.107397e-02 2.067400e-17 0 
   12.705744 1.104168e-02 2.051900e-17 0 
   12.735031 1.100831e-02 2.036300e-17 0 
   12.764387 1.097385e-02 2.020600e-17 0 
   12.793809 1.093938e-02 2.005000e-17 0 
   12.823300 1.090492e-02 1.989500e-17 0 
   12.852873 1.087543e-02 1.975000e-17 0 
   12.882499 1.084541e-02 1.960500e-17 0 
   12.912195 1.081488e-02 1.946000e-17 0 
   12.941958 1.078328e-02 1.931400e-17 0 
   12.971790 1.075116e-02 1.916800e-17 0 
   13.001691 1.071851e-02 1.902200e-17 0 
   13.031661 1.068534e-02 1.887600e-17 0 
   13.061714 1.065108e-02 1.872900e-17 0 
   13.091823 1.061969e-02 1.858800e-17 0 
   13.122000 1.059064e-02 1.845200e-17 0 
   13.152247 1.056110e-02 1.831600e-17 0 
   13.182564 1.053107e-02 1.818000e-17 0 
   13.212950 1.050053e-02 1.804400e-17 0 
   13.243422 1.046892e-02 1.790700e-17 0 
   13.273948 1.043678e-02 1.777000e-17 0 
   13.304547 1.040352e-02 1.763200e-17 0 
   13.335214 1.036974e-02 1.749400e-17 0 
   13.365953 1.034197e-02 1.736700e-17 0 
   13.396763 1.031373e-02 1.724000e-17 0 
   13.427642 1.028440e-02 1.711200e-17 0 
   13.458609 1.025461e-02 1.698400e-17 0 
   13.489633 1.022430e-02 1.685600e-17 0 
   13.520727 1.019349e-02 1.672800e-17 0 
   13.551894 1.016157e-02 1.659900e-17 0 
   13.583131 1.012913e-02 1.647000e-17 0 
   13.614441 1.009865e-02 1.634500e-17 0 
   13.645839 1.007142e-02 1.622600e-17 0 
   13.677294 1.004308e-02 1.610600e-17 0 
   13.708820 1.001488e-02 1.598700e-17 0 
   13.740420 9.985587e-03 1.586700e-17 0 
   13.772092 9.955806e-03 1.574700e-17 0 
   13.803839 9.925540e-03 1.562700e-17 0 
   13.835658 9.894142e-03 1.550600e-17 0 
   13.867564 9.862264e-03 1.538500e-17 0 
   13.899530 9.834368e-03 1.527100e-17 0 
   13.931570 9.807299e-03 1.515900e-17 0 
   13.963683 9.780420e-03 1.504800e-17 0 
   13.995870 9.751778e-03 1.493500e-17 0 
   14.028131 9.723319e-03 1.482300e-17 0 
   14.060467 9.693730e-03 1.471000e-17 0 
   14.092894 9.663683e-03 1.459700e-17 0 
   14.125378 9.633130e-03 1.448400e-17 0 
   14.157939 9.602759e-03 1.437200e-17 0 
   14.190573 9.577271e-03 1.426800e-17 0 
   14.223284 9.550668e-03 1.416300e-17 0 
   14.256070 9.523618e-03 1.405800e-17 0 
   14.288947 9.496133e-03 1.395300e-17 0 
   14.321883 9.468170e-03 1.384800e-17 0 
   14.354897 9.439062e-03 1.374200e-17 0 
   14.387986 9.409483e-03 1.363600e-17 0 
   14.421152 9.379430e-03 1.353000e-17 0 
   14.454392 9.351683e-03 1.342800e-17 0 
   14.487711 9.326280e-03 1.333000e-17 0 
   14.521122 9.300463e-03 1.323200e-17 0 
   14.554594 9.274189e-03 1.313400e-17 0 
   14.588144 9.246766e-03 1.303500e-17 0 
   14.621770 9.218890e-03 1.293600e-17 0 
   14.655475 9.190562e-03 1.283700e-17 0 
   14.689256 9.161775e-03 1.273800e-17 0 
   14.723133 9.131825e-03 1.263800e-17 0 
   14.757070 9.107188e-03 1.254600e-17 0 
   14.791086 9.082130e-03 1.245400e-17 0 
   14.825181 9.056648e-03 1.236200e-17 0 
   14.859355 9.030737e-03 1.227000e-17 0 
   14.893606 9.003654e-03 1.217700e-17 0 
   14.927938 8.976872e-03 1.208500e-17 0 
   14.962363 8.948921e-03 1.199200e-17 0 
   14.996853 8.919756e-03 1.189800e-17 0 
   15.031422 8.893142e-03 1.180800e-17 0 
   15.066070 8.869118e-03 1.172200e-17 0 
   15.100798 8.843923e-03 1.163500e-17 0 
   15.135606 8.819070e-03 1.154900e-17 0 
   15.170513 8.793820e-03 1.146300e-17 0 
   15.205481 8.767356e-03 1.137600e-17 0 
   15.240531 8.740463e-03 1.128900e-17 0 
   15.275661 8.713133e-03 1.120200e-17 0 
   15.310872 8.684584e-03 1.111400e-17 0 
   15.346166 8.660297e-03 1.103200e-17 0 
   15.381539 8.636387e-03 1.095100e-17 0 
   15.417011 8.612884e-03 1.087100e-17 0 
   15.452548 8.588166e-03 1.079000e-17 0 
   15.488169 8.562237e-03 1.070800e-17 0 
   15.523870 8.536689e-03 1.062700e-17 0 
   15.559653 8.509913e-03 1.054500e-17 0 
   15.595519 8.483521e-03 1.046400e-17 0 
   15.631469 8.456705e-03 1.038300e-17 0 
   15.667517 8.433568e-03 1.030700e-17 0 
   15.703631 8.410841e-03 1.023200e-17 0 
   15.739830 8.386901e-03 1.015600e-17 0 
   15.776111 8.362559e-03 1.008000e-17 0 
   15.812477 8.337814e-03 1.000400e-17 0 
   15.848925 8.312076e-03 9.927300e-18 0 
   15.885475 8.286109e-03 9.850800e-18 0 
   15.922092 8.259539e-03 9.774100e-18 0 
   15.958794 8.235348e-03 9.700700e-18 0 
   15.995580 8.212975e-03 9.629900e-18 0 
   16.032452 8.190135e-03 9.559000e-18 0 
   16.069406 8.166736e-03 9.487900e-18 0 
   16.106448 8.142775e-03 9.416600e-18 0 
   16.143592 8.118349e-03 9.345200e-18 0 
   16.180805 8.093331e-03 9.273600e-18 0 
   16.218103 8.067823e-03 9.201900e-18 0 
   16.255486 8.041729e-03 9.130000e-18 0 
   16.292956 8.019913e-03 9.063400e-18 0 
   16.330513 7.997903e-03 8.997000e-18 0 
   16.368173 7.975445e-03 8.930500e-18 0 
   16.405903 7.952414e-03 8.863800e-18 0 
   16.443720 7.928910e-03 8.797000e-18 0 
   16.481623 7.904838e-03 8.730000e-18 0 
   16.519616 7.880284e-03 8.662900e-18 0 
   16.557694 7.855153e-03 8.595600e-18 0 
   16.595861 7.831182e-03 8.530000e-18 0 
   16.634134 7.810069e-03 8.467900e-18 0 
   16.672477 7.788390e-03 8.405600e-18 0 
   16.710908 7.766252e-03 8.343200e-18 0 
   16.749428 7.743651e-03 8.280700e-18 0 
   16.788036 7.720486e-03 8.218000e-18 0 
   16.826734 7.696850e-03 8.155200e-18 0 
   16.865539 7.672658e-03 8.092200e-18 0 
   16.904416 7.647966e-03 8.029100e-18 0 
   16.943381 7.626327e-03 7.969600e-18 0 
   16.982437 7.605577e-03 7.911400e-18 0 
   17.021583 7.584278e-03 7.853000e-18 0 
   17.060819 7.562523e-03 7.794500e-18 0 
   17.100145 7.540310e-03 7.735900e-18 0 
   17.139581 7.517550e-03 7.677100e-18 0 
   17.179089 7.494207e-03 7.618100e-18 0 
   17.218688 7.470487e-03 7.559100e-18 0 
   17.258378 7.446886e-03 7.500600e-18 0 
   17.298161 7.426898e-03 7.446100e-18 0 
   17.338034 7.406366e-03 7.391400e-18 0 
   17.377998 7.385485e-03 7.336700e-18 0 
   17.418075 7.364068e-03 7.281800e-18 0 
   17.458225 7.342179e-03 7.226800e-18 0 
   17.498469 7.319727e-03 7.171600e-18 0 
   17.538803 7.296911e-03 7.116400e-18 0 
   17.579231 7.273521e-03 7.061000e-18 0 
   17.619753 7.252141e-03 7.007900e-18 0 
   17.660388 7.232504e-03 6.956800e-18 0 
   17.701095 7.212306e-03 6.905500e-18 0 
   17.741898 7.191768e-03 6.854200e-18 0 
   17.782794 7.170675e-03 6.802700e-18 0 
   17.823784 7.149129e-03 6.751100e-18 0 
   17.864870 7.127125e-03 6.699400e-18 0 
   17.906050 7.104659e-03 6.647600e-18 0 
   17.947344 7.081633e-03 6.595600e-18 0 
   17.988714 7.062436e-03 6.547500e-18 0 
   18.030180 7.043127e-03 6.499600e-18 0 
   18.071741 7.023271e-03 6.451500e-18 0 
   18.113397 7.003081e-03 6.403400e-18 0 
   18.155150 6.982337e-03 6.355100e-18 0 
   18.197019 6.961157e-03 6.306700e-18 0 
   18.238964 6.939505e-03 6.258200e-18 0 
   18.281006 6.917395e-03 6.209600e-18 0 
   18.323145 6.896275e-03 6.162200e-18 0 
   18.365381 6.877624e-03 6.117300e-18 0 
   18.407714 6.858540e-03 6.072300e-18 0 
   18.450145 6.839134e-03 6.027300e-18 0 
   18.492695 6.819190e-03 5.982100e-18 0 
   18.535322 6.798787e-03 5.936800e-18 0 
   18.578047 6.777934e-03 5.891400e-18 0 
   18.620870 6.756629e-03 5.845900e-18 0 
   18.663794 6.734984e-03 5.800400e-18 0 
   18.706814 6.715909e-03 5.757400e-18 0 
   18.749934 6.697570e-03 5.715300e-18 0 
   18.793175 6.678816e-03 5.673100e-18 0 
   18.836495 6.659732e-03 5.630900e-18 0 
   18.879914 6.640091e-03 5.588500e-18 0 
   18.923434 6.620008e-03 5.546000e-18 0 
   18.967053 6.599597e-03 5.503500e-18 0 
   19.010775 6.578618e-03 5.460800e-18 0 
   19.054616 6.557800e-03 5.418500e-18 0 
   19.098539 6.540164e-03 5.379100e-18 0 
   19.142563 6.522224e-03 5.339700e-18 0 
   19.186688 6.503734e-03 5.300100e-18 0 
   19.230914 6.484935e-03 5.260500e-18 0 
   19.275242 6.465575e-03 5.220700e-18 0 
   19.319673 6.445900e-03 5.180900e-18 0 
   19.364228 6.425793e-03 5.141000e-18 0 
   19.408864 6.405224e-03 5.101000e-18 0 
   19.453603 6.386347e-03 5.062600e-18 0 
   19.498444 6.369058e-03 5.025700e-18 0 
   19.543389 6.351348e-03 4.988700e-18 0 
   19.588439 6.333211e-03 4.951600e-18 0 
   19.633613 6.314656e-03 4.914400e-18 0 
   19.678870 6.295652e-03 4.877100e-18 0 
   19.724231 6.276208e-03 4.839700e-18 0 
   19.769697 6.256451e-03 4.802300e-18 0 
   19.815267 6.236246e-03 4.764800e-18 0 
   19.860942 6.219273e-03 4.730000e-18 0 
   19.906723 6.202274e-03 4.695400e-18 0 
   19.952631 6.184865e-03 4.660700e-18 0 
   19.998623 6.167018e-03 4.625900e-18 0 
   20.044722 6.148740e-03 4.591000e-18 0 
   20.090927 6.130027e-03 4.556000e-18 0 
   20.137238 6.111010e-03 4.521000e-18 0 
   20.183656 6.091553e-03 4.485900e-18 0 
   20.230203 6.072889e-03 4.451600e-18 0 
   20.276834 6.056514e-03 4.419200e-18 0 
   20.323573 6.039720e-03 4.386700e-18 0 
   20.370422 6.022644e-03 4.354200e-18 0 
   20.417377 6.005141e-03 4.321600e-18 0 
   20.464441 5.987070e-03 4.288800e-18 0 
   20.511613 5.968843e-03 4.256100e-18 0 
   20.558916 5.950053e-03 4.223200e-18 0 
   20.606305 5.930948e-03 4.190300e-18 0 
   20.653805 5.914100e-03 4.159200e-18 0 
   20.701412 5.897970e-03 4.128800e-18 0 
   20.749131 5.881565e-03 4.098400e-18 0 
   20.796959 5.864595e-03 4.067800e-18 0 
   20.844898 5.847343e-03 4.037200e-18 0 
   20.892970 5.829674e-03 4.006500e-18 0 
   20.941130 5.811704e-03 3.975800e-18 0 
   20.989400 5.793297e-03 3.945000e-18 0 
   21.037783 5.774892e-03 3.914400e-18 0 
   21.086275 5.759453e-03 3.886000e-18 0 
   21.134881 5.743602e-03 3.857500e-18 0 
   21.183622 5.727343e-03 3.828900e-18 0 
   21.232452 5.710649e-03 3.800200e-18 0 
   21.281394 5.693679e-03 3.771500e-18 0 
   21.330448 5.676431e-03 3.742800e-18 0 
   21.379617 5.658597e-03 3.713900e-18 0 
   21.428898 5.640478e-03 3.685000e-18 0 
   21.478294 5.623917e-03 3.657300e-18 0 
   21.527827 5.608639e-03 3.630600e-18 0 
   21.577450 5.593089e-03 3.603900e-18 0 
   21.627188 5.577119e-03 3.577100e-18 0 
   21.677039 5.560726e-03 3.550200e-18 0 
   21.727006 5.544063e-03 3.523300e-18 0 
   21.777089 5.526970e-03 3.496300e-18 0 
   21.827311 5.509454e-03 3.469200e-18 0 
   21.877623 5.491646e-03 3.442100e-18 0 
   21.928053 5.476762e-03 3.417000e-18 0 
   21.978598 5.461785e-03 3.392000e-18 0 
   22.029261 5.446391e-03 3.366900e-18 0 
   22.080041 5.430739e-03 3.341800e-18 0 
   22.130936 5.414662e-03 3.316600e-18 0 
   22.181973 5.398170e-03 3.291300e-18 0 
   22.233105 5.381398e-03 3.266000e-18 0 
   22.284355 5.364357e-03 3.240700e-18 0 
   22.335720 5.347874e-03 3.215900e-18 0 
   22.387206 5.333465e-03 3.192500e-18 0 
   22.438811 5.318808e-03 3.169100e-18 0 
   22.490558 5.303577e-03 3.145500e-18 0 
   22.542400 5.288080e-03 3.121900e-18 0 
   22.594363 5.272327e-03 3.098300e-18 0 
   22.646444 5.256146e-03 3.074600e-18 0 
   22.698645 5.239702e-03 3.050900e-18 0 
   22.750967 5.222822e-03 3.027100e-18 0 
   22.803411 5.208102e-03 3.004700e-18 0 
   22.855998 5.193842e-03 2.982700e-18 0 
   22.908683 5.179328e-03 2.960700e-18 0 
   22.961489 5.164394e-03 2.938600e-18 0 
   23.014417 5.149211e-03 2.916500e-18 0 
   23.067467 5.133778e-03 2.894400e-18 0 
   23.120639 5.117915e-03 2.872200e-18 0 
   23.173934 5.101618e-03 2.849900e-18 0 
   23.227378 5.085432e-03 2.827800e-18 0 
   23.280919 5.071866e-03 2.807300e-18 0 
   23.334583 5.057886e-03 2.786700e-18 0 
   23.388370 5.043486e-03 2.766000e-18 0 
   23.442281 5.028845e-03 2.745300e-18 0 
   23.496319 5.013963e-03 2.724600e-18 0 
   23.550505 4.998662e-03 2.703800e-18 0 
   23.604791 4.983102e-03 2.683000e-18 0 
   23.659202 4.967105e-03 2.662100e-18 0 
   23.713738 4.952540e-03 2.642100e-18 0 
   23.768398 4.939054e-03 2.622800e-18 0 
   23.823187 4.925338e-03 2.603500e-18 0 
   23.878102 4.911201e-03 2.584100e-18 0 
   23.933167 4.896837e-03 2.564700e-18 0 
   23.988336 4.882227e-03 2.545300e-18 0 
   24.043630 4.867184e-03 2.525800e-18 0 
   24.099053 4.851706e-03 2.506200e-18 0 
   24.154603 4.836174e-03 2.486700e-18 0 
   24.210281 4.822937e-03 2.468500e-18 0 
   24.266114 4.809680e-03 2.450400e-18 0 
   24.322048 4.796188e-03 2.432300e-18 0 
   24.378113 4.782469e-03 2.414200e-18 0 
   24.434306 4.768322e-03 2.396000e-18 0 
   24.490630 4.753743e-03 2.377700e-18 0 
   24.547081 4.738927e-03 2.359400e-18 0 
   24.603664 4.723874e-03 2.341100e-18 0 
   24.660405 4.709402e-03 2.323200e-18 0 
   24.717248 4.696721e-03 2.306300e-18 0 
   24.774223 4.683823e-03 2.289400e-18 0 
   24.831330 4.670501e-03 2.272400e-18 0 
   24.888567 4.656749e-03 2.255300e-18 0 
   24.945937 4.642979e-03 2.238300e-18 0 
   25.003441 4.628774e-03 2.221200e-18 0 
   25.061102 4.614139e-03 2.204000e-18 0 
   25.118870 4.599261e-03 2.186800e-18 0 
   25.176770 4.586259e-03 2.170600e-18 0 
   25.234805 4.573889e-03 2.154800e-18 0 
   25.292973 4.561094e-03 2.138900e-18 0 
   25.351275 4.547868e-03 2.122900e-18 0 
   25.409739 4.534434e-03 2.106900e-18 0 
   26.001594 4.401975e-03 1.953300e-18 0 
   26.607263 4.272457e-03 1.810500e-18 0 
   27.227009 4.147136e-03 1.678300e-18 0 
   27.861222 4.027690e-03 1.556600e-18 0 
   28.575897 3.899723e-03 1.432700e-18 0 
   29.174281 3.797497e-03 1.338500e-18 0 
   29.853819 3.686509e-03 1.240900e-18 0 
   30.549222 3.578100e-03 1.150200e-18 0 
   31.260784 3.472773e-03 1.066100e-18 0 
   31.988959 3.372912e-03 9.888400e-19 0 
   32.734059 3.275347e-03 9.170200e-19 0 
   33.496550 3.180176e-03 8.503000e-19 0 
   34.276766 3.087315e-03 7.883200e-19 0 
