# NGC 0695       
# 
# An Atlas of Galaxy Spectral Energy Distributions from the Ultraviolet to the Mid-Infrared
# Brown et al. (2014)
# http://dx.doi.org/10.5072/03/529D3551F0117
# http://dx.doi.org/10.17909/t9-5bxk-dh29
# 
# The Spectral Energy Distributions of Active Galactic Nuclei
# Brown et al. (2019)
# http://dx.doi.org/10.17909/t9-3dbt-8734
# 
# Column 1: Observed wavelength (um)
# Column 2: f_nu (Jy)
# Column 3: f_lam (erg/s/cm2/A)
# Column 4: Source (0 = model, 1 = Optical Spectrun, 2 = Akari, 3 = Spitzer IRS)
# 
    0.010328 1.300669e-18 3.658100e-27 0 
    0.010520 2.234398e-18 6.056900e-27 0 
    0.010740 3.476500e-18 9.041800e-27 0 
    0.010940 5.484700e-18 1.374800e-26 0 
    0.011143 8.752493e-18 2.114700e-26 0 
    0.011350 1.578076e-17 3.675000e-26 0 
    0.011776 3.460429e-17 7.486100e-26 0 
    0.012190 6.968662e-17 1.406900e-25 0 
    0.012503 3.452698e-16 6.626000e-25 0 
    0.012912 6.297004e-16 1.133100e-24 0 
    0.013122 8.168546e-16 1.423200e-24 0 
    0.013213 9.443797e-16 1.622800e-24 0 
    0.013521 1.358760e-15 2.229700e-24 0 
    0.013614 1.742205e-15 2.820000e-24 0 
    0.013836 2.188548e-15 3.429700e-24 0 
    0.014158 3.541065e-15 5.299700e-24 0 
    0.014454 4.887709e-15 7.018600e-24 0 
    0.014757 1.611128e-14 2.219500e-23 0 
    0.015171 5.225919e-14 6.811700e-23 0 
    0.015596 7.501699e-14 9.252400e-23 0 
    0.015996 1.071933e-13 1.256800e-22 0 
    0.016406 1.528003e-13 1.703100e-22 0 
    0.016711 1.964018e-13 2.109900e-22 0 
    0.017140 2.755163e-13 2.813500e-22 0 
    0.017539 3.725134e-13 3.632900e-22 0 
    0.017865 4.689604e-13 4.408100e-22 0 
    0.018281 6.239197e-13 5.600800e-22 0 
    0.018578 7.658243e-13 6.656600e-22 0 
    0.018793 8.772559e-13 7.451700e-22 0 
    0.019187 1.140636e-12 9.295100e-22 0 
    0.019724 1.567167e-12 1.208500e-21 0 
    0.020045 1.901729e-12 1.419900e-21 0 
    0.020464 2.399443e-12 1.718900e-21 0 
    0.020845 3.020886e-12 2.085700e-21 0 
    0.021184 3.590394e-12 2.400200e-21 0 
    0.021677 4.488725e-12 2.865800e-21 0 
    0.022284 6.384320e-12 3.857000e-21 0 
    0.022699 7.836871e-12 4.563000e-21 0 
    0.023014 8.976763e-12 5.084600e-21 0 
    0.023442 1.096783e-11 5.987600e-21 0 
    0.023768 1.866884e-11 9.914100e-21 0 
    0.024155 3.381758e-11 1.738800e-20 0 
    0.024774 5.177604e-11 2.530800e-20 0 
    0.025410 5.972215e-11 2.774900e-20 0 
    0.026002 7.711642e-11 3.421800e-20 0 
    0.026546 7.588103e-11 3.230400e-20 0 
    0.026853 9.618775e-11 4.001800e-20 0 
    0.027227 1.135365e-10 4.594700e-20 0 
    0.027797 1.315605e-10 5.108000e-20 0 
    0.028314 1.507083e-10 5.639700e-20 0 
    0.028774 1.710530e-10 6.198000e-20 0 
    0.029309 1.959447e-10 6.843100e-20 0 
    0.029923 2.178414e-10 7.298800e-20 0 
    0.030549 2.553442e-10 8.208300e-20 0 
    0.031046 2.812816e-10 8.754900e-20 0 
    0.031769 3.350707e-10 9.959800e-20 0 
    0.032810 4.247495e-10 1.183700e-19 0 
    0.033884 5.225502e-10 1.365400e-19 0 
    0.034914 6.268033e-10 1.542600e-19 0 
    0.035892 7.432261e-10 1.730800e-19 0 
    0.036898 8.752389e-10 1.928600e-19 0 
    0.037757 1.028326e-09 2.164000e-19 0 
    0.038726 1.180716e-09 2.361900e-19 0 
    0.039719 1.315612e-09 2.501800e-19 0 
    0.040738 1.578099e-09 2.852700e-19 0 
    0.041783 1.832877e-09 3.149600e-19 0 
    0.042756 2.056463e-09 3.374800e-19 0 
    0.043551 2.234237e-09 3.533900e-19 0 
    0.044361 2.444195e-09 3.726100e-19 0 
    0.045499 2.806307e-09 4.066800e-19 0 
    0.046559 3.119884e-09 4.317700e-19 0 
    0.047534 3.389523e-09 4.500400e-19 0 
    0.048529 3.750911e-09 4.778100e-19 0 
    0.049545 4.179548e-09 5.108000e-19 0 
    0.050582 4.499106e-09 5.275400e-19 0 
    0.051642 5.048167e-09 5.678700e-19 0 
    0.052240 5.471863e-09 6.015200e-19 0 
    0.052845 8.168431e-09 8.775100e-19 0 
    0.053703 8.935729e-09 9.295100e-19 0 
    0.054702 9.865942e-09 9.891300e-19 0 
    0.055719 1.028339e-08 9.936900e-19 0 
    0.056754 1.352505e-08 1.259700e-18 0 
    0.057810 1.660081e-08 1.490200e-18 0 
    0.058884 1.968401e-08 1.703100e-18 0 
    0.059841 2.037677e-08 1.707100e-18 0 
    0.060954 2.577118e-08 2.080900e-18 0 
    0.061944 2.819215e-08 2.204200e-18 0 
    0.062951 3.373952e-08 2.554200e-18 0 
    0.063973 4.160344e-08 3.049700e-18 0 
    0.065013 4.765734e-08 3.382600e-18 0 
    0.066069 5.141957e-08 3.533900e-18 0 
    0.067143 6.182071e-08 4.113900e-18 0 
    0.067920 6.888475e-08 4.479700e-18 0 
    0.068707 7.605600e-08 4.833400e-18 0 
    0.069663 8.149532e-08 5.037900e-18 0 
    0.070795 8.553364e-08 5.119800e-18 0 
    0.071779 1.159113e-07 6.749200e-18 0 
    0.072778 1.167167e-07 6.610800e-18 0 
    0.073961 1.489835e-07 8.170600e-18 0 
    0.074989 1.637295e-07 8.734800e-18 0 
    0.075858 1.782935e-07 9.295100e-18 0 
    0.076913 2.123901e-07 1.077100e-17 0 
    0.077983 2.394024e-07 1.181000e-17 0 
    0.079068 2.661578e-07 1.277200e-17 0 
    0.079983 3.055767e-07 1.433000e-17 0 
    0.081096 3.476370e-07 1.585800e-17 0 
    0.082035 3.794228e-07 1.691400e-17 0 
    0.083176 4.169858e-07 1.808200e-17 0 
    0.084140 4.520051e-07 1.915400e-17 0 
    0.085114 5.201474e-07 2.154000e-17 0 
    0.086298 4.488762e-07 1.808200e-17 0 
    0.087297 6.013546e-07 2.367300e-17 0 
    0.088308 6.488188e-07 2.496000e-17 0 
    0.089331 7.313695e-07 2.749500e-17 0 
    0.090365 8.206118e-07 3.014800e-17 0 
    0.091411 9.335290e-07 3.351600e-17 0 
    0.092470 1.030701e-06 3.616200e-17 0 
    0.093541 1.074315e-06 3.683400e-17 0 
    0.094406 1.754394e-06 5.905400e-17 0 
    0.095499 1.315629e-05 4.327700e-16 0 
    0.096605 3.055842e-05 9.823200e-16 0 
    0.097499 6.111126e-05 1.928600e-15 0 
    0.098628 9.060177e-05 2.794200e-15 0 
    0.099541 1.059572e-04 3.208100e-15 0 
    0.100693 1.698769e-05 5.026400e-16 0 
    0.101625 9.619164e-05 2.794200e-15 0 
    0.102802 1.064470e-04 3.021700e-15 0 
    0.103753 1.626042e-04 4.531600e-15 0 
    0.104713 1.618589e-04 4.428500e-15 0 
    0.105925 7.114295e-05 1.902200e-15 0 
    0.106905 1.199859e-04 3.149600e-15 0 
    0.107895 2.421785e-04 6.241000e-15 0 
    0.108893 2.455450e-04 6.212300e-15 0 
    0.109901 1.991297e-04 4.946000e-15 0 
    0.110918 2.461135e-04 6.001400e-15 0 
    0.111944 1.995885e-04 4.778100e-15 0 
    0.112980 2.761425e-04 6.490100e-15 0 
    0.114025 2.729794e-04 6.298700e-15 0 
    0.115080 2.704790e-04 6.127100e-15 0 
    0.116145 2.501118e-04 5.562300e-15 0 
    0.117220 3.304734e-04 7.215300e-15 0 
    0.118304 3.084123e-04 6.610800e-15 0 
    0.119124 3.373892e-04 7.132700e-15 0 
    0.120226 3.590301e-04 7.451700e-15 0 
    0.121339 2.541756e-04 5.179100e-15 0 
    0.122462 3.690897e-04 7.383300e-15 0 
    0.123311 2.571217e-04 5.072900e-15 0 
    0.124451 1.879888e-04 3.641300e-15 0 
    0.125314 1.276807e-04 2.439200e-15 0 
    0.126474 2.748750e-04 5.155300e-15 0 
    0.127644 4.356420e-04 8.021400e-15 0 
    0.128529 4.933279e-04 8.958900e-15 0 
    0.129718 4.843191e-04 8.634800e-15 0 
    0.130617 4.237733e-04 7.451700e-15 0 
    0.131522 5.664069e-04 9.823200e-15 0 
    0.132739 6.125175e-04 1.042900e-14 0 
    0.133660 4.921925e-04 8.265200e-15 0 
    0.134586 4.967416e-04 8.227200e-15 0 
    0.135831 6.443377e-04 1.047700e-14 0 
    0.136773 6.311692e-04 1.012200e-14 0 
    0.137721 5.690248e-04 9.000200e-15 0 
    0.138995 7.000783e-04 1.087100e-14 0 
    0.139959 6.936296e-04 1.062300e-14 0 
    0.140929 6.311490e-04 9.533500e-15 0 
    0.141906 6.809768e-04 1.014500e-14 0 
    0.142889 7.033068e-04 1.033400e-14 0 
    0.143880 6.253634e-04 9.062600e-15 0 
    0.145211 6.685461e-04 9.511600e-15 0 
    0.146218 6.984465e-04 9.800600e-15 0 
    0.147231 7.347048e-04 1.016800e-14 0 
    0.148252 7.449299e-04 1.016800e-14 0 
    0.148936 8.001023e-04 1.082100e-14 0 
    0.149279 8.205793e-04 1.104700e-14 0 
    0.150314 8.130935e-04 1.079600e-14 0 
    0.151356 7.640796e-04 1.000600e-14 0 
    0.152405 7.782689e-04 1.005200e-14 0 
    0.153462 8.112392e-04 1.033400e-14 0 
    0.154525 8.436089e-04 1.059900e-14 0 
    0.155239 8.111773e-04 1.009800e-14 0 
    0.155955 7.296751e-04 9.000200e-15 0 
    0.156675 7.927390e-04 9.688400e-15 0 
    0.157398 7.800630e-04 9.446100e-15 0 
    0.158489 6.904479e-04 8.246200e-15 0 
    0.159588 7.800694e-04 9.188700e-15 0 
    0.160694 7.501196e-04 8.714700e-15 0 
    0.161436 7.764875e-04 8.938300e-15 0 
    0.162555 8.474835e-04 9.621700e-15 0 
    0.163682 9.080633e-04 1.016800e-14 0 
    0.164816 9.486684e-04 1.047700e-14 0 
    0.165577 9.421877e-04 1.031000e-14 0 
    0.166725 9.663242e-04 1.042900e-14 0 
    0.167880 9.292447e-04 9.891300e-15 0 
    0.168655 1.007220e-03 1.062300e-14 0 
    0.169824 1.045072e-03 1.087100e-14 0 
    0.171002 9.820333e-04 1.007500e-14 0 
    0.171791 1.091753e-03 1.109800e-14 0 
    0.172584 9.843126e-04 9.914100e-15 0 
    0.172982 1.122403e-03 1.125300e-14 0 
    0.173780 1.186135e-03 1.178300e-14 0 
    0.174985 1.135380e-03 1.112400e-14 0 
    0.176198 1.109471e-03 1.072100e-14 0 
    0.177011 1.069392e-03 1.023900e-14 0 
    0.178238 1.084269e-03 1.023900e-14 0 
    0.179061 1.175210e-03 1.099600e-14 0 
    0.180302 1.169884e-03 1.079600e-14 0 
    0.181134 1.268088e-03 1.159500e-14 0 
    0.182390 1.180725e-03 1.064800e-14 0 
    0.183231 1.230584e-03 1.099600e-14 0 
    0.184502 1.276878e-03 1.125300e-14 0 
    0.185353 1.383964e-03 1.208500e-14 0 
    0.186209 1.390419e-03 1.203000e-14 0 
    0.187499 1.309556e-03 1.117500e-14 0 
    0.188365 1.355625e-03 1.146200e-14 0 
    0.189671 1.324723e-03 1.104700e-14 0 
    0.190546 1.233496e-03 1.019200e-14 0 
    0.191426 1.259329e-03 1.031000e-14 0 
    0.192753 1.321682e-03 1.067200e-14 0 
    0.193642 1.449268e-03 1.159500e-14 0 
    0.194536 1.355581e-03 1.074600e-14 0 
    0.195434 1.318600e-03 1.035700e-14 0 
    0.196789 1.422790e-03 1.102200e-14 0 
    0.197697 1.390352e-03 1.067200e-14 0 
    0.198610 1.384026e-03 1.052600e-14 0 
    0.199986 1.445931e-03 1.084600e-14 0 
    0.200909 1.535059e-03 1.140900e-14 0 
    0.201837 1.459241e-03 1.074600e-14 0 
    0.203236 1.626035e-03 1.181000e-14 0 
    0.204174 1.690965e-03 1.216900e-14 0 
    0.204645 1.611107e-03 1.154100e-14 0 
    0.206063 1.596428e-03 1.127900e-14 0 
    0.207014 1.663909e-03 1.164800e-14 0 
    0.207970 1.629861e-03 1.130500e-14 0 
    0.208930 1.726427e-03 1.186500e-14 0 
    0.209894 1.660158e-03 1.130500e-14 0 
    0.211349 1.754426e-03 1.178300e-14 0 
    0.212324 1.691006e-03 1.125300e-14 0 
    0.213304 1.726368e-03 1.138300e-14 0 
    0.214289 1.875516e-03 1.225300e-14 0 
    0.214783 1.795294e-03 1.167500e-14 0 
    0.215278 1.871241e-03 1.211300e-14 0 
    0.216272 1.795326e-03 1.151500e-14 0 
    0.217270 1.832861e-03 1.164800e-14 0 
    0.218273 1.871262e-03 1.178300e-14 0 
    0.219281 1.928175e-03 1.203000e-14 0 
    0.220293 1.816117e-03 1.122700e-14 0 
    0.221309 1.884171e-03 1.154100e-14 0 
    0.222331 1.977573e-03 1.200200e-14 0 
    0.223357 1.941488e-03 1.167500e-14 0 
    0.224388 1.950390e-03 1.162100e-14 0 
    0.225424 1.941509e-03 1.146200e-14 0 
    0.226464 2.056566e-03 1.203000e-14 0 
    0.227510 2.028333e-03 1.175600e-14 0 
    0.228560 1.959510e-03 1.125300e-14 0 
    0.229615 1.923688e-03 1.094600e-14 0 
    0.230675 2.075227e-03 1.170000e-14 0 
    0.231739 2.009028e-03 1.122300e-14 0 
    0.232809 1.958247e-03 1.083900e-14 0 
    0.233884 2.026699e-03 1.111500e-14 0 
    0.234963 2.102306e-03 1.142400e-14 0 
    0.236048 2.175628e-03 1.171400e-14 0 
    0.237137 2.082156e-03 1.110800e-14 0 
    0.238232 2.110510e-03 1.115600e-14 0 
    0.238781 2.038715e-03 1.072700e-14 0 
    0.239883 1.652947e-03 8.617500e-15 0 
    0.240991 1.955054e-03 1.009900e-14 0 
    0.242103 1.918959e-03 9.821700e-15 0 
    0.243220 2.089191e-03 1.059500e-14 0 
    0.244343 1.958235e-03 9.839800e-15 0 
    0.245471 2.036050e-03 1.013700e-14 0 
    0.246037 1.908603e-03 9.458800e-15 0 
    0.247172 2.053980e-03 1.008600e-14 0 
    0.248313 1.997639e-03 9.719400e-15 0 
    0.249460 2.062602e-03 9.943400e-15 0 
    0.250611 2.199462e-03 1.050600e-14 0 
    0.251189 2.129487e-03 1.012500e-14 0 
    0.252348 2.265505e-03 1.067300e-14 0 
    0.253513 2.259692e-03 1.054800e-14 0 
    0.254683 2.269571e-03 1.049700e-14 0 
    0.255270 2.207498e-03 1.016300e-14 0 
    0.256448 2.295000e-03 1.046900e-14 0 
    0.257632 2.166168e-03 9.790700e-15 0 
    0.258821 2.435472e-03 1.090700e-14 0 
    0.259418 2.215822e-03 9.877700e-15 0 
    0.260016 2.288091e-03 1.015300e-14 0 
    0.260615 2.210168e-03 9.762200e-15 0 
    0.261818 2.255914e-03 9.872900e-15 0 
    0.263027 2.244995e-03 9.735000e-15 0 
    0.263633 2.394125e-03 1.033400e-14 0 
    0.264850 2.377232e-03 1.016700e-14 0 
    0.266072 2.523109e-03 1.069200e-14 0 
    0.266686 2.516987e-03 1.061700e-14 0 
    0.267917 2.516350e-03 1.051700e-14 0 
    0.269154 2.469853e-03 1.022800e-14 0 
    0.269774 2.452619e-03 1.011000e-14 0 
    0.271019 2.579365e-03 1.053500e-14 0 
    0.272270 2.657100e-03 1.075300e-14 0 
    0.272898 2.859775e-03 1.152000e-14 0 
    0.274157 2.925558e-03 1.167700e-14 0 
    0.275423 2.729618e-03 1.079500e-14 0 
    0.276058 2.858055e-03 1.125100e-14 0 
    0.277332 2.877061e-03 1.122200e-14 0 
    0.277971 2.779068e-03 1.079000e-14 0 
    0.279254 2.869247e-03 1.103800e-14 0 
    0.280543 2.784036e-03 1.061200e-14 0 
    0.281190 2.802954e-03 1.063500e-14 0 
    0.282488 2.954442e-03 1.110700e-14 0 
    0.283139 2.644999e-03 9.898000e-15 0 
    0.284446 2.712087e-03 1.005600e-14 0 
    0.285759 2.826191e-03 1.038300e-14 0 
    0.286418 2.959012e-03 1.082100e-14 0 
    0.287740 2.864407e-03 1.037900e-14 0 
    0.288403 2.393093e-03 8.631400e-15 0 
    0.289734 2.575373e-03 9.203700e-15 0 
    0.290402 3.039373e-03 1.081200e-14 0 
    0.291743 3.174468e-03 1.118900e-14 0 
    0.292415 3.073389e-03 1.078300e-14 0 
    0.293765 3.051205e-03 1.060700e-14 0 
    0.294442 2.995061e-03 1.036400e-14 0 
    0.295801 3.230726e-03 1.107700e-14 0 
    0.297167 3.237379e-03 1.099800e-14 0 
    0.297852 3.266812e-03 1.104700e-14 0 
    0.299227 3.265706e-03 1.094200e-14 0 
    0.300608 3.514603e-03 1.166800e-14 0 
    0.302691 3.456892e-03 1.131900e-14 0 
    0.304789 3.471226e-03 1.121000e-14 0 
    0.306902 3.566931e-03 1.136100e-14 0 
    0.309030 3.623571e-03 1.138300e-14 0 
    0.310456 3.689539e-03 1.148400e-14 0 
    0.312608 3.739237e-03 1.147900e-14 0 
    0.314775 3.789606e-03 1.147400e-14 0 
    0.316957 3.849694e-03 1.149600e-14 0 
    0.319154 3.928373e-03 1.157000e-14 0 
    0.321366 3.963048e-03 1.151200e-14 0 
    0.322849 3.961838e-03 1.140300e-14 0 
    0.325087 4.042672e-03 1.147600e-14 0 
    0.327341 4.097140e-03 1.147100e-14 0 
    0.329610 3.992621e-03 1.102500e-14 0 
    0.331131 4.131892e-03 1.130500e-14 0 
    0.333426 4.063740e-03 1.096600e-14 0 
    0.335738 4.282608e-03 1.139800e-14 0 
    0.337287 4.411331e-03 1.163300e-14 0 
    0.339625 4.450015e-03 1.157400e-14 0 
    0.341979 4.509968e-03 1.156900e-14 0 
    0.342768 4.582498e-03 1.170100e-14 0 
    0.343558 4.624104e-03 1.175300e-14 0 
    0.344350 4.774698e-03 1.208000e-14 0 
    0.345144 4.527520e-03 1.140200e-14 0 
    0.345939 4.762219e-03 1.193800e-14 0 
    0.346737 4.610287e-03 1.150400e-14 0 
    0.347536 4.556675e-03 1.131800e-14 0 
    0.348337 4.411470e-03 1.090700e-14 0 
    0.349140 4.608179e-03 1.134100e-14 0 
    0.349945 4.824575e-03 1.181900e-14 0 
    0.350752 4.735718e-03 1.154800e-14 0 
    0.351560 4.734903e-03 1.149300e-14 0 
    0.352371 4.669030e-03 1.128100e-14 0 
    0.353183 4.854396e-03 1.167500e-14 0 
    0.353997 4.865102e-03 1.164700e-14 0 
    0.354813 4.908959e-03 1.169800e-14 0 
    0.355631 4.623025e-03 1.096600e-14 0 
    0.356451 5.091610e-03 1.202200e-14 0 
    0.357273 4.805796e-03 1.129500e-14 0 
    0.358096 4.849763e-03 1.134600e-14 0 
    0.358922 4.815478e-03 1.121400e-14 0 
    0.359749 4.881698e-03 1.131600e-14 0 
    0.360579 4.937187e-03 1.139200e-14 0 
    0.361410 4.812808e-03 1.105400e-14 0 
    0.362243 4.924248e-03 1.125800e-14 0 
    0.363078 4.822182e-03 1.097400e-14 0 
    0.363915 5.013956e-03 1.135800e-14 0 
    0.364754 5.129790e-03 1.156700e-14 0 
    0.365595 5.224312e-03 1.172600e-14 0 
    0.366437 5.345083e-03 1.194200e-14 0 
    0.367282 5.246558e-03 1.166800e-14 0 
    0.367953 5.732388e-03 1.270200e-14 1 
    0.368228 5.870224e-03 1.298800e-14 1 
    0.368503 5.489265e-03 1.212700e-14 1 
    0.368778 5.909532e-03 1.303600e-14 1 
    0.369053 5.874765e-03 1.294000e-14 1 
    0.369328 5.572524e-03 1.225600e-14 1 
    0.369603 4.963820e-03 1.090100e-14 1 
    0.369878 4.845801e-03 1.062600e-14 1 
    0.370153 5.493775e-03 1.202900e-14 1 
    0.370428 4.884922e-03 1.068000e-14 1 
    0.370703 5.175722e-03 1.129900e-14 1 
    0.370978 5.656375e-03 1.233000e-14 1 
    0.371253 5.675790e-03 1.235400e-14 1 
    0.371528 5.086058e-03 1.105400e-14 1 
    0.371803 5.558068e-03 1.206200e-14 1 
    0.372078 6.128368e-03 1.328000e-14 1 
    0.372353 4.826293e-03 1.044300e-14 1 
    0.372628 5.277750e-03 1.140300e-14 1 
    0.372903 5.552532e-03 1.197900e-14 1 
    0.373178 4.981395e-03 1.073100e-14 1 
    0.373453 5.480594e-03 1.178900e-14 1 
    0.373728 5.688866e-03 1.221900e-14 1 
    0.374003 5.184354e-03 1.111900e-14 1 
    0.374278 5.124273e-03 1.097400e-14 1 
    0.374553 5.474114e-03 1.170600e-14 1 
    0.374828 5.652155e-03 1.206900e-14 1 
    0.375103 5.526316e-03 1.178300e-14 1 
    0.375378 5.482756e-03 1.167300e-14 1 
    0.375653 5.493614e-03 1.167900e-14 1 
    0.375928 5.039538e-03 1.069800e-14 1 
    0.376203 5.557832e-03 1.178100e-14 1 
    0.376478 5.394933e-03 1.141900e-14 1 
    0.376753 5.494607e-03 1.161300e-14 1 
    0.377028 5.742865e-03 1.212000e-14 1 
    0.377303 5.634512e-03 1.187400e-14 1 
    0.377578 5.220736e-03 1.098600e-14 1 
    0.377853 5.982660e-03 1.257100e-14 1 
    0.378128 5.418495e-03 1.136900e-14 1 
    0.378403 5.610139e-03 1.175400e-14 1 
    0.378678 5.516006e-03 1.154000e-14 1 
    0.378953 6.110409e-03 1.276500e-14 1 
    0.379228 5.609700e-03 1.170200e-14 1 
    0.379503 5.886680e-03 1.226200e-14 1 
    0.379778 5.626464e-03 1.170300e-14 1 
    0.380053 5.840684e-03 1.213100e-14 1 
    0.380328 5.481730e-03 1.136900e-14 1 
    0.380603 5.430268e-03 1.124600e-14 1 
    0.380878 5.815778e-03 1.202700e-14 1 
    0.381153 5.465344e-03 1.128600e-14 1 
    0.381428 5.884962e-03 1.213500e-14 1 
    0.381703 5.673448e-03 1.168200e-14 1 
    0.381978 5.395162e-03 1.109300e-14 1 
    0.382253 5.973765e-03 1.226500e-14 1 
    0.382528 5.642395e-03 1.156800e-14 1 
    0.382803 5.898160e-03 1.207500e-14 1 
    0.383078 5.364156e-03 1.096600e-14 1 
    0.383353 6.074327e-03 1.240000e-14 1 
    0.383628 6.083536e-03 1.240100e-14 1 
    0.383903 7.160285e-03 1.457500e-14 1 
    0.384178 9.737185e-03 1.979200e-14 1 
    0.384453 1.421777e-02 2.885800e-14 1 
    0.384728 1.902840e-02 3.856700e-14 1 
    0.385003 1.992817e-02 4.033300e-14 1 
    0.385278 1.591119e-02 3.215700e-14 1 
    0.385553 1.148726e-02 2.318300e-14 1 
    0.385828 8.121483e-03 1.636700e-14 1 
    0.386103 7.376754e-03 1.484500e-14 1 
    0.386378 7.059827e-03 1.418700e-14 1 
    0.386653 7.431671e-03 1.491300e-14 1 
    0.386928 6.730111e-03 1.348600e-14 1 
    0.387203 6.541778e-03 1.309000e-14 1 
    0.387478 6.505531e-03 1.299900e-14 1 
    0.387753 7.303618e-03 1.457300e-14 1 
    0.388028 7.277846e-03 1.450100e-14 1 
    0.388303 7.437436e-03 1.479800e-14 1 
    0.388578 7.386067e-03 1.467500e-14 1 
    0.388853 7.038670e-03 1.396500e-14 1 
    0.389128 7.257085e-03 1.437800e-14 1 
    0.389403 6.789696e-03 1.343300e-14 1 
    0.389678 6.818017e-03 1.347000e-14 1 
    0.389953 7.239229e-03 1.428200e-14 1 
    0.390228 7.865661e-03 1.549600e-14 1 
    0.390503 8.828813e-03 1.736900e-14 1 
    0.390778 8.850414e-03 1.738700e-14 1 
    0.391053 8.438771e-03 1.655500e-14 1 
    0.391328 7.998887e-03 1.567000e-14 1 
    0.391603 7.616528e-03 1.490000e-14 1 
    0.391878 7.066193e-03 1.380400e-14 1 
    0.392153 6.443549e-03 1.257000e-14 1 
    0.392428 6.689749e-03 1.303200e-14 1 
    0.392703 7.507732e-03 1.460500e-14 1 
    0.392978 7.973824e-03 1.549000e-14 1 
    0.393253 8.259746e-03 1.602300e-14 1 
    0.393528 8.983161e-03 1.740200e-14 1 
    0.393803 9.155454e-03 1.771100e-14 1 
    0.394078 9.077654e-03 1.753600e-14 1 
    0.394353 8.508705e-03 1.641400e-14 1 
    0.394628 8.589617e-03 1.654700e-14 1 
    0.394903 8.712836e-03 1.676100e-14 1 
    0.395178 7.979544e-03 1.532900e-14 1 
    0.395453 7.181111e-03 1.377600e-14 1 
    0.395728 6.790726e-03 1.300900e-14 1 
    0.396003 6.238758e-03 1.193500e-14 1 
    0.396278 6.264700e-03 1.196800e-14 1 
    0.396553 6.954833e-03 1.326800e-14 1 
    0.396828 7.823233e-03 1.490400e-14 1 
    0.397103 8.322921e-03 1.583400e-14 1 
    0.397378 9.199794e-03 1.747800e-14 1 
    0.397653 9.113966e-03 1.729100e-14 1 
    0.397928 8.938671e-03 1.693500e-14 1 
    0.398203 9.254418e-03 1.750900e-14 1 
    0.398478 9.216923e-03 1.741400e-14 1 
    0.398753 9.676451e-03 1.825700e-14 1 
    0.399028 9.818773e-03 1.850000e-14 1 
    0.399303 1.024686e-02 1.928000e-14 1 
    0.399578 1.072241e-02 2.014700e-14 1 
    0.399853 9.788535e-03 1.836700e-14 1 
    0.400128 9.496208e-03 1.779400e-14 1 
    0.400403 9.483079e-03 1.774500e-14 1 
    0.400678 9.130073e-03 1.706100e-14 1 
    0.400953 8.370946e-03 1.562100e-14 1 
    0.401228 8.171006e-03 1.522700e-14 1 
    0.401503 8.077966e-03 1.503300e-14 1 
    0.401778 8.206876e-03 1.525200e-14 1 
    0.402053 8.696049e-03 1.613900e-14 1 
    0.402328 8.869278e-03 1.643800e-14 1 
    0.402603 9.329853e-03 1.726800e-14 1 
    0.402878 9.790581e-03 1.809600e-14 1 
    0.403153 1.022220e-02 1.886800e-14 1 
    0.403428 1.028715e-02 1.896200e-14 1 
    0.403703 1.089441e-02 2.005400e-14 1 
    0.403978 1.087444e-02 1.999000e-14 1 
    0.404253 1.098567e-02 2.016700e-14 1 
    0.404528 1.112881e-02 2.040200e-14 1 
    0.404803 1.116907e-02 2.044800e-14 1 
    0.405078 1.099227e-02 2.009700e-14 1 
    0.405353 1.086260e-02 1.983300e-14 1 
    0.405628 9.678991e-03 1.764800e-14 1 
    0.405903 8.813963e-03 1.604900e-14 1 
    0.406178 8.596588e-03 1.563200e-14 1 
    0.406453 9.132480e-03 1.658400e-14 1 
    0.406728 1.007730e-02 1.827500e-14 1 
    0.407003 1.031401e-02 1.867900e-14 1 
    0.407278 1.031524e-02 1.865600e-14 1 
    0.407553 1.045596e-02 1.888500e-14 1 
    0.407828 1.034866e-02 1.866600e-14 1 
    0.408103 1.057580e-02 1.905000e-14 1 
    0.408378 1.031544e-02 1.855600e-14 1 
    0.408653 9.822223e-03 1.764500e-14 1 
    0.408928 8.867231e-03 1.590800e-14 1 
    0.409203 8.487893e-03 1.520700e-14 1 
    0.409478 8.028147e-03 1.436400e-14 1 
    0.409753 7.394766e-03 1.321300e-14 1 
    0.410028 7.475867e-03 1.334000e-14 1 
    0.410303 7.763112e-03 1.383400e-14 1 
    0.410578 8.240473e-03 1.466500e-14 1 
    0.410853 8.456889e-03 1.503000e-14 1 
    0.411128 9.446875e-03 1.676700e-14 1 
    0.411403 1.017658e-02 1.803800e-14 1 
    0.411678 1.035854e-02 1.833600e-14 1 
    0.411953 1.070953e-02 1.893200e-14 1 
    0.412228 1.094588e-02 1.932400e-14 1 
    0.412503 1.087087e-02 1.916600e-14 1 
    0.412778 1.070760e-02 1.885300e-14 1 
    0.413053 1.044889e-02 1.837300e-14 1 
    0.413328 1.062910e-02 1.866500e-14 1 
    0.413603 1.067404e-02 1.871900e-14 1 
    0.413878 1.116672e-02 1.955700e-14 1 
    0.414153 1.118557e-02 1.956400e-14 1 
    0.414428 1.100291e-02 1.921900e-14 1 
    0.414703 1.091835e-02 1.904600e-14 1 
    0.414978 1.113202e-02 1.939300e-14 1 
    0.415253 1.134335e-02 1.973500e-14 1 
    0.415528 1.114313e-02 1.936100e-14 1 
    0.415803 1.125470e-02 1.952900e-14 1 
    0.416078 1.130941e-02 1.959800e-14 1 
    0.416353 1.174734e-02 2.033000e-14 1 
    0.416628 1.206952e-02 2.086000e-14 1 
    0.416903 1.214861e-02 2.096900e-14 1 
    0.417178 1.170402e-02 2.017500e-14 1 
    0.417453 1.145515e-02 1.972000e-14 1 
    0.417728 1.145105e-02 1.968700e-14 1 
    0.418003 1.167231e-02 2.004100e-14 1 
    0.418278 1.176291e-02 2.017000e-14 1 
    0.418553 1.197459e-02 2.050600e-14 1 
    0.418828 1.201430e-02 2.054700e-14 1 
    0.419103 1.178184e-02 2.012300e-14 1 
    0.419378 1.173750e-02 2.002100e-14 1 
    0.419653 1.211393e-02 2.063600e-14 1 
    0.419928 1.177536e-02 2.003300e-14 1 
    0.420203 1.190262e-02 2.022300e-14 1 
    0.420478 1.187341e-02 2.014700e-14 1 
    0.420753 1.208900e-02 2.048600e-14 1 
    0.421028 1.175500e-02 1.989400e-14 1 
    0.421303 1.149880e-02 1.943500e-14 1 
    0.421578 1.159142e-02 1.956600e-14 1 
    0.421853 1.130402e-02 1.905600e-14 1 
    0.422128 1.141973e-02 1.922600e-14 1 
    0.422403 1.124846e-02 1.891300e-14 1 
    0.422678 1.014591e-02 1.703700e-14 1 
    0.422953 1.029329e-02 1.726200e-14 1 
    0.423228 9.995600e-03 1.674100e-14 1 
    0.423503 1.022801e-02 1.710800e-14 1 
    0.423778 1.028140e-02 1.717500e-14 1 
    0.424053 9.934507e-03 1.657400e-14 1 
    0.424328 1.017066e-02 1.694600e-14 1 
    0.424603 1.110933e-02 1.848600e-14 1 
    0.424878 1.117728e-02 1.857500e-14 1 
    0.425153 1.203889e-02 1.998100e-14 1 
    0.425428 1.149340e-02 1.905100e-14 1 
    0.425703 1.197038e-02 1.981600e-14 1 
    0.425978 1.214856e-02 2.008500e-14 1 
    0.426253 1.142901e-02 1.887100e-14 1 
    0.426528 1.187796e-02 1.958700e-14 1 
    0.426803 1.174026e-02 1.933500e-14 1 
    0.427078 1.189341e-02 1.956200e-14 1 
    0.427353 1.213945e-02 1.994100e-14 1 
    0.427628 1.190638e-02 1.953300e-14 1 
    0.427903 1.221589e-02 2.001500e-14 1 
    0.428178 1.215031e-02 1.988200e-14 1 
    0.428453 1.164948e-02 1.903800e-14 1 
    0.428728 1.239721e-02 2.023400e-14 1 
    0.429003 1.178983e-02 1.921800e-14 1 
    0.429278 1.218579e-02 1.983800e-14 1 
    0.429553 1.200644e-02 1.952100e-14 1 
    0.429828 1.194484e-02 1.939600e-14 1 
    0.430103 1.247810e-02 2.023600e-14 1 
    0.430378 1.205693e-02 1.952800e-14 1 
    0.430653 1.179785e-02 1.908400e-14 1 
    0.430928 1.208343e-02 1.952100e-14 1 
    0.431203 1.204122e-02 1.942800e-14 1 
    0.431478 1.153157e-02 1.858200e-14 1 
    0.431753 1.162705e-02 1.871200e-14 1 
    0.432028 1.189758e-02 1.912300e-14 1 
    0.432303 1.185043e-02 1.902300e-14 1 
    0.432578 1.236763e-02 1.982800e-14 1 
    0.432853 1.222223e-02 1.957000e-14 1 
    0.433128 1.227966e-02 1.963700e-14 1 
    0.433403 1.223828e-02 1.954600e-14 1 
    0.433678 1.198612e-02 1.911900e-14 1 
    0.433953 1.228317e-02 1.956800e-14 1 
    0.434228 1.218938e-02 1.939400e-14 1 
    0.434503 1.266171e-02 2.012000e-14 1 
    0.434778 1.219823e-02 1.935900e-14 1 
    0.435053 1.277769e-02 2.025300e-14 1 
    0.435328 1.227775e-02 1.943600e-14 1 
    0.435603 1.189795e-02 1.881100e-14 1 
    0.435878 1.233033e-02 1.947000e-14 1 
    0.436153 1.272318e-02 2.006500e-14 1 
    0.436428 1.239194e-02 1.951800e-14 1 
    0.436703 1.219969e-02 1.919100e-14 1 
    0.436978 1.242446e-02 1.952000e-14 1 
    0.437253 1.251850e-02 1.964300e-14 1 
    0.437528 1.221839e-02 1.914800e-14 1 
    0.437803 1.233214e-02 1.930200e-14 1 
    0.438078 1.256770e-02 1.964600e-14 1 
    0.438353 1.263152e-02 1.972100e-14 1 
    0.438628 1.252232e-02 1.952600e-14 1 
    0.438903 1.235374e-02 1.923900e-14 1 
    0.439178 1.212620e-02 1.886100e-14 1 
    0.439453 1.214782e-02 1.887100e-14 1 
    0.439728 1.261227e-02 1.956800e-14 1 
    0.440003 1.282101e-02 1.986700e-14 1 
    0.440278 1.314267e-02 2.034000e-14 1 
    0.440553 1.301806e-02 2.012200e-14 1 
    0.440828 1.267480e-02 1.956700e-14 1 
    0.441103 1.199081e-02 1.848800e-14 1 
    0.441378 1.255839e-02 1.933900e-14 1 
    0.441653 1.261631e-02 1.940400e-14 1 
    0.441928 1.318603e-02 2.025500e-14 1 
    0.442203 1.274878e-02 1.955900e-14 1 
    0.442478 1.294673e-02 1.983800e-14 1 
    0.442753 1.299876e-02 1.989300e-14 1 
    0.443028 1.271985e-02 1.944200e-14 1 
    0.443303 1.222732e-02 1.866600e-14 1 
    0.443578 1.230874e-02 1.876700e-14 1 
    0.443853 1.203244e-02 1.832300e-14 1 
    0.444128 1.203683e-02 1.830700e-14 1 
    0.444403 1.245266e-02 1.891600e-14 1 
    0.444678 1.224990e-02 1.858500e-14 1 
    0.444953 1.221622e-02 1.851100e-14 1 
    0.445228 1.239057e-02 1.875200e-14 1 
    0.445503 1.263611e-02 1.910000e-14 1 
    0.445778 1.311141e-02 1.979400e-14 1 
    0.446053 1.283446e-02 1.935200e-14 1 
    0.446328 1.241070e-02 1.869000e-14 1 
    0.446603 1.214543e-02 1.826800e-14 1 
    0.446878 1.177564e-02 1.769000e-14 1 
    0.447153 1.160085e-02 1.740600e-14 1 
    0.447428 1.227576e-02 1.839600e-14 1 
    0.447703 1.316209e-02 1.970000e-14 1 
    0.447978 1.399639e-02 2.092300e-14 1 
    0.448253 1.480926e-02 2.211100e-14 1 
    0.448528 1.323948e-02 1.974300e-14 1 
    0.448803 1.238087e-02 1.844000e-14 1 
    0.449078 1.189994e-02 1.770200e-14 1 
    0.449353 1.178731e-02 1.751300e-14 1 
    0.449628 1.275191e-02 1.892300e-14 1 
    0.449903 1.265079e-02 1.875000e-14 1 
    0.450178 1.311482e-02 1.941400e-14 1 
    0.450453 1.315790e-02 1.945400e-14 1 
    0.450728 1.355523e-02 2.001700e-14 1 
    0.451003 1.322938e-02 1.951200e-14 1 
    0.451278 1.315251e-02 1.937500e-14 1 
    0.451553 1.302378e-02 1.916200e-14 1 
    0.451828 1.304917e-02 1.917600e-14 1 
    0.452103 1.302486e-02 1.911700e-14 1 
    0.452378 1.345410e-02 1.972300e-14 1 
    0.452653 1.299920e-02 1.903300e-14 1 
    0.452928 1.246659e-02 1.823100e-14 1 
    0.453203 1.321361e-02 1.930000e-14 1 
    0.453478 1.344352e-02 1.961200e-14 1 
    0.453753 1.315648e-02 1.917000e-14 1 
    0.454028 1.355655e-02 1.972900e-14 1 
    0.454303 1.376079e-02 2.000200e-14 1 
    0.454578 1.335797e-02 1.939300e-14 1 
    0.454853 1.355207e-02 1.965100e-14 1 
    0.455128 1.358641e-02 1.967700e-14 1 
    0.455403 1.351711e-02 1.955300e-14 1 
    0.455678 1.367325e-02 1.975500e-14 1 
    0.455953 1.368699e-02 1.975100e-14 1 
    0.456228 1.363343e-02 1.965000e-14 1 
    0.456503 1.358110e-02 1.955100e-14 1 
    0.456778 1.348063e-02 1.938300e-14 1 
    0.457053 1.365214e-02 1.960600e-14 1 
    0.457328 1.364487e-02 1.957200e-14 1 
    0.457603 1.368921e-02 1.961200e-14 1 
    0.457878 1.410750e-02 2.018700e-14 1 
    0.458153 1.398172e-02 1.998300e-14 1 
    0.458428 1.373231e-02 1.960300e-14 1 
    0.458703 1.360641e-02 1.940000e-14 1 
    0.458978 1.439867e-02 2.050500e-14 1 
    0.459253 1.460715e-02 2.077700e-14 1 
    0.459528 1.428749e-02 2.029800e-14 1 
    0.459803 1.386202e-02 1.967000e-14 1 
    0.460078 1.389625e-02 1.969500e-14 1 
    0.460353 1.379136e-02 1.952300e-14 1 
    0.460628 1.363174e-02 1.927400e-14 1 
    0.460903 1.377760e-02 1.945700e-14 1 
    0.461178 1.413789e-02 1.994200e-14 1 
    0.461453 1.434782e-02 2.021400e-14 1 
    0.461728 1.414321e-02 1.990200e-14 1 
    0.462003 1.429524e-02 2.009200e-14 1 
    0.462278 1.411993e-02 1.982200e-14 1 
    0.462553 1.404260e-02 1.969000e-14 1 
    0.462828 1.395362e-02 1.954200e-14 1 
    0.463103 1.420255e-02 1.986700e-14 1 
    0.463378 1.443485e-02 2.016800e-14 1 
    0.463653 1.416823e-02 1.977200e-14 1 
    0.463928 1.378328e-02 1.921200e-14 1 
    0.464203 1.446978e-02 2.014500e-14 1 
    0.464478 1.453223e-02 2.020800e-14 1 
    0.464753 1.481656e-02 2.057900e-14 1 
    0.465028 1.503089e-02 2.085200e-14 1 
    0.465303 1.494763e-02 2.071200e-14 1 
    0.465578 1.486054e-02 2.056700e-14 1 
    0.465853 1.466759e-02 2.027600e-14 1 
    0.466128 1.485149e-02 2.050600e-14 1 
    0.466403 1.490455e-02 2.055500e-14 1 
    0.466678 1.460126e-02 2.011300e-14 1 
    0.466953 1.423035e-02 1.957900e-14 1 
    0.467228 1.412850e-02 1.941600e-14 1 
    0.467503 1.418230e-02 1.946700e-14 1 
    0.467778 1.447469e-02 1.984500e-14 1 
    0.468053 1.419743e-02 1.944200e-14 1 
    0.468328 1.417610e-02 1.939000e-14 1 
    0.468603 1.426082e-02 1.948300e-14 1 
    0.468878 1.460954e-02 1.993600e-14 1 
    0.469153 1.427451e-02 1.945600e-14 1 
    0.469428 1.414802e-02 1.926100e-14 1 
    0.469703 1.458083e-02 1.982700e-14 1 
    0.469978 1.439102e-02 1.954600e-14 1 
    0.470253 1.458257e-02 1.978300e-14 1 
    0.470528 1.466162e-02 1.986700e-14 1 
    0.470803 1.486495e-02 2.011900e-14 1 
    0.471078 1.503396e-02 2.032400e-14 1 
    0.471353 1.490637e-02 2.012800e-14 1 
    0.471628 1.508540e-02 2.034600e-14 1 
    0.471903 1.491074e-02 2.008700e-14 1 
    0.472178 1.500616e-02 2.019200e-14 1 
    0.472453 1.493064e-02 2.006700e-14 1 
    0.472728 1.506497e-02 2.022400e-14 1 
    0.473003 1.510190e-02 2.025000e-14 1 
    0.473278 1.503957e-02 2.014300e-14 1 
    0.473553 1.455099e-02 1.946600e-14 1 
    0.473828 1.488970e-02 1.989600e-14 1 
    0.474103 1.498641e-02 2.000200e-14 1 
    0.474378 1.578017e-02 2.103700e-14 1 
    0.474653 1.547329e-02 2.060400e-14 1 
    0.474928 1.511680e-02 2.010600e-14 1 
    0.475203 1.571391e-02 2.087600e-14 1 
    0.475478 1.596421e-02 2.118400e-14 1 
    0.475753 1.603625e-02 2.125500e-14 1 
    0.476028 1.534251e-02 2.031200e-14 1 
    0.476303 1.561584e-02 2.065000e-14 1 
    0.476578 1.582542e-02 2.090300e-14 1 
    0.476853 1.602636e-02 2.114400e-14 1 
    0.477128 1.607748e-02 2.118700e-14 1 
    0.477403 1.610893e-02 2.120400e-14 1 
    0.477678 1.621268e-02 2.131600e-14 1 
    0.477953 1.629380e-02 2.139800e-14 1 
    0.478228 1.584142e-02 2.078000e-14 1 
    0.478503 1.580164e-02 2.070400e-14 1 
    0.478778 1.595506e-02 2.088100e-14 1 
    0.479053 1.558555e-02 2.037400e-14 1 
    0.479328 1.562106e-02 2.039700e-14 1 
    0.479603 1.557995e-02 2.032000e-14 1 
    0.479878 1.584576e-02 2.064300e-14 1 
    0.480153 1.593079e-02 2.073000e-14 1 
    0.480428 1.578132e-02 2.051200e-14 1 
    0.480703 1.549668e-02 2.011900e-14 1 
    0.480978 1.564474e-02 2.028800e-14 1 
    0.481253 1.597839e-02 2.069700e-14 1 
    0.481528 1.553060e-02 2.009400e-14 1 
    0.481803 1.556846e-02 2.012000e-14 1 
    0.482078 1.526708e-02 1.970800e-14 1 
    0.482353 1.510147e-02 1.947200e-14 1 
    0.482628 1.517227e-02 1.954100e-14 1 
    0.482903 1.576012e-02 2.027500e-14 1 
    0.483178 1.567535e-02 2.014300e-14 1 
    0.483453 1.495462e-02 1.919500e-14 1 
    0.483728 1.560186e-02 2.000300e-14 1 
    0.484003 1.505269e-02 1.927700e-14 1 
    0.484278 1.556622e-02 1.991200e-14 1 
    0.484553 1.598226e-02 2.042100e-14 1 
    0.484828 1.542844e-02 1.969100e-14 1 
    0.485103 1.543104e-02 1.967200e-14 1 
    0.485378 1.517054e-02 1.931800e-14 1 
    0.485653 1.506116e-02 1.915700e-14 1 
    0.485928 1.506563e-02 1.914100e-14 1 
    0.486203 1.478010e-02 1.875700e-14 1 
    0.486478 1.517469e-02 1.923600e-14 1 
    0.486753 1.526214e-02 1.932500e-14 1 
    0.487028 1.509833e-02 1.909600e-14 1 
    0.487303 1.531169e-02 1.934400e-14 1 
    0.487578 1.526400e-02 1.926200e-14 1 
    0.487853 1.550970e-02 1.955000e-14 1 
    0.488128 1.502444e-02 1.891700e-14 1 
    0.488403 1.526560e-02 1.919900e-14 1 
    0.488678 1.530509e-02 1.922700e-14 1 
    0.488953 1.567774e-02 1.967300e-14 1 
    0.489228 1.525419e-02 1.912000e-14 1 
    0.489503 1.548780e-02 1.939100e-14 1 
    0.489778 1.577547e-02 1.972900e-14 1 
    0.490053 1.599972e-02 1.998700e-14 1 
    0.490328 1.599124e-02 1.995400e-14 1 
    0.490603 1.550293e-02 1.932300e-14 1 
    0.490878 1.549541e-02 1.929200e-14 1 
    0.491153 1.555700e-02 1.934700e-14 1 
    0.491428 1.508740e-02 1.874200e-14 1 
    0.491703 1.539200e-02 1.909900e-14 1 
    0.491978 1.480331e-02 1.834800e-14 1 
    0.492253 1.544988e-02 1.912800e-14 1 
    0.492528 1.524720e-02 1.885600e-14 1 
    0.492803 1.590861e-02 1.965200e-14 1 
    0.493078 1.614194e-02 1.991800e-14 1 
    0.493353 1.593034e-02 1.963500e-14 1 
    0.493628 1.617310e-02 1.991200e-14 1 
    0.493903 1.583415e-02 1.947300e-14 1 
    0.494178 1.573213e-02 1.932600e-14 1 
    0.494453 1.617179e-02 1.984400e-14 1 
    0.494728 1.577777e-02 1.933900e-14 1 
    0.495003 1.612447e-02 1.974200e-14 1 
    0.495278 1.602874e-02 1.960300e-14 1 
    0.495553 1.589101e-02 1.941300e-14 1 
    0.495828 1.584146e-02 1.933100e-14 1 
    0.496103 1.624052e-02 1.979600e-14 1 
    0.496378 1.623964e-02 1.977300e-14 1 
    0.496653 1.573635e-02 1.913900e-14 1 
    0.496928 1.577107e-02 1.916000e-14 1 
    0.497203 1.569129e-02 1.904200e-14 1 
    0.497478 1.614505e-02 1.957100e-14 1 
    0.497753 1.579045e-02 1.912000e-14 1 
    0.498028 1.622790e-02 1.962800e-14 1 
    0.498303 1.574839e-02 1.902700e-14 1 
    0.498578 1.507969e-02 1.819900e-14 1 
    0.498853 1.554676e-02 1.874200e-14 1 
    0.499128 1.520848e-02 1.831400e-14 1 
    0.499403 1.605409e-02 1.931100e-14 1 
    0.499678 1.554163e-02 1.867400e-14 1 
    0.499953 1.516131e-02 1.819700e-14 1 
    0.500228 1.535816e-02 1.841300e-14 1 
    0.500503 1.482729e-02 1.775700e-14 1 
    0.500778 1.474077e-02 1.763400e-14 1 
    0.501053 1.461888e-02 1.746900e-14 1 
    0.501328 1.769864e-02 2.112600e-14 1 
    0.501603 2.412226e-02 2.876200e-14 1 
    0.501878 2.955410e-02 3.520000e-14 1 
    0.502153 2.868713e-02 3.413000e-14 1 
    0.502428 2.270727e-02 2.698600e-14 1 
    0.502703 1.647755e-02 1.956100e-14 1 
    0.502978 1.464710e-02 1.736900e-14 1 
    0.503253 1.406879e-02 1.666500e-14 1 
    0.503528 1.457181e-02 1.724200e-14 1 
    0.503803 1.470111e-02 1.737600e-14 1 
    0.504078 1.518808e-02 1.793200e-14 1 
    0.504353 1.517922e-02 1.790200e-14 1 
    0.504628 1.513212e-02 1.782700e-14 1 
    0.504903 1.525058e-02 1.794700e-14 1 
    0.505178 1.535142e-02 1.804600e-14 1 
    0.505453 1.562106e-02 1.834300e-14 1 
    0.505728 1.595692e-02 1.871700e-14 1 
    0.506003 1.636004e-02 1.916900e-14 1 
    0.506278 1.606939e-02 1.880800e-14 1 
    0.506553 1.558393e-02 1.822000e-14 1 
    0.506828 1.611888e-02 1.882500e-14 1 
    0.507103 1.613295e-02 1.882100e-14 1 
    0.507378 1.592219e-02 1.855500e-14 1 
    0.507653 1.643341e-02 1.913000e-14 1 
    0.507928 1.573056e-02 1.829200e-14 1 
    0.508203 1.511742e-02 1.756000e-14 1 
    0.508478 1.554316e-02 1.803500e-14 1 
    0.508753 1.569543e-02 1.819200e-14 1 
    0.509028 1.587391e-02 1.837900e-14 1 
    0.509303 1.664675e-02 1.925300e-14 1 
    0.509578 1.617050e-02 1.868200e-14 1 
    0.509853 1.626508e-02 1.877100e-14 1 
    0.510128 1.595127e-02 1.838900e-14 1 
    0.510403 1.640873e-02 1.889600e-14 1 
    0.510678 1.719402e-02 1.977900e-14 1 
    0.510953 1.688881e-02 1.940700e-14 1 
    0.511228 1.714221e-02 1.967700e-14 1 
    0.511503 1.853861e-02 2.125700e-14 1 
    0.511778 1.935477e-02 2.216900e-14 1 
    0.512053 2.045671e-02 2.340600e-14 1 
    0.512328 1.870257e-02 2.137600e-14 1 
    0.512603 1.817874e-02 2.075500e-14 1 
    0.512878 1.671731e-02 1.906600e-14 1 
    0.513153 1.662289e-02 1.893800e-14 1 
    0.513428 1.681557e-02 1.913700e-14 1 
    0.513703 1.706054e-02 1.939500e-14 1 
    0.513978 1.721530e-02 1.955000e-14 1 
    0.514253 1.642449e-02 1.863200e-14 1 
    0.514528 1.583581e-02 1.794500e-14 1 
    0.514803 1.630239e-02 1.845400e-14 1 
    0.515078 1.677437e-02 1.896800e-14 1 
    0.515353 1.698263e-02 1.918300e-14 1 
    0.515628 1.667462e-02 1.881500e-14 1 
    0.515903 1.686097e-02 1.900500e-14 1 
    0.516178 1.837279e-02 2.068700e-14 1 
    0.516453 2.138057e-02 2.404800e-14 1 
    0.516728 2.511298e-02 2.821600e-14 1 
    0.517003 2.670515e-02 2.997300e-14 1 
    0.517278 2.503357e-02 2.806700e-14 1 
    0.517553 2.027798e-02 2.271100e-14 1 
    0.517828 1.770656e-02 1.981000e-14 1 
    0.518103 1.641722e-02 1.834800e-14 1 
    0.518378 1.623312e-02 1.812300e-14 1 
    0.518653 1.687622e-02 1.882100e-14 1 
    0.518928 1.690220e-02 1.883000e-14 1 
    0.519203 1.683116e-02 1.873100e-14 1 
    0.519478 1.761989e-02 1.958800e-14 1 
    0.519753 1.722523e-02 1.912900e-14 1 
    0.520028 1.741473e-02 1.931900e-14 1 
    0.520303 1.715522e-02 1.901100e-14 1 
    0.520578 1.722034e-02 1.906300e-14 1 
    0.520853 1.715172e-02 1.896700e-14 1 
    0.521128 1.668191e-02 1.842800e-14 1 
    0.521403 1.699675e-02 1.875600e-14 1 
    0.521678 1.618554e-02 1.784200e-14 1 
    0.521953 1.698632e-02 1.870500e-14 1 
    0.522228 1.770148e-02 1.947200e-14 1 
    0.522503 1.706127e-02 1.874800e-14 1 
    0.522778 1.750193e-02 1.921200e-14 1 
    0.523053 1.784956e-02 1.957300e-14 1 
    0.523328 1.751960e-02 1.919100e-14 1 
    0.523603 1.704453e-02 1.865100e-14 1 
    0.523878 1.714660e-02 1.874300e-14 1 
    0.524153 1.664444e-02 1.817500e-14 1 
    0.524428 1.670317e-02 1.822000e-14 1 
    0.524703 1.715385e-02 1.869200e-14 1 
    0.524978 1.726462e-02 1.879300e-14 1 
    0.525253 1.734525e-02 1.886100e-14 1 
    0.525528 1.751439e-02 1.902500e-14 1 
    0.525803 1.777049e-02 1.928300e-14 1 
    0.526078 1.747358e-02 1.894100e-14 1 
    0.526353 1.666718e-02 1.804800e-14 1 
    0.526628 1.682789e-02 1.820300e-14 1 
    0.526903 1.697965e-02 1.834800e-14 1 
    0.527178 1.713541e-02 1.849700e-14 1 
    0.527453 1.724696e-02 1.859800e-14 1 
    0.527728 1.753694e-02 1.889100e-14 1 
    0.528003 1.799385e-02 1.936300e-14 1 
    0.528278 1.750096e-02 1.881300e-14 1 
    0.528553 1.752477e-02 1.881900e-14 1 
    0.528828 1.710301e-02 1.834700e-14 1 
    0.529103 1.702469e-02 1.824400e-14 1 
    0.529378 1.758326e-02 1.882300e-14 1 
    0.529653 1.704982e-02 1.823300e-14 1 
    0.529928 1.728189e-02 1.846200e-14 1 
    0.530203 1.756595e-02 1.874600e-14 1 
    0.530478 1.742847e-02 1.858000e-14 1 
    0.530753 1.682211e-02 1.791500e-14 1 
    0.531028 1.735183e-02 1.846000e-14 1 
    0.531303 1.746766e-02 1.856400e-14 1 
    0.531578 1.784462e-02 1.894500e-14 1 
    0.531853 1.684571e-02 1.786600e-14 1 
    0.532128 1.722275e-02 1.824700e-14 1 
    0.532403 1.749660e-02 1.851800e-14 1 
    0.532678 1.749482e-02 1.849700e-14 1 
    0.532953 1.753845e-02 1.852400e-14 1 
    0.533228 1.706656e-02 1.800700e-14 1 
    0.533503 1.726538e-02 1.819800e-14 1 
    0.533778 1.663927e-02 1.752000e-14 1 
    0.534053 1.610025e-02 1.693500e-14 1 
    0.534328 1.688104e-02 1.773800e-14 1 
    0.534603 1.684221e-02 1.767900e-14 1 
    0.534878 1.713229e-02 1.796500e-14 1 
    0.535153 1.770455e-02 1.854600e-14 1 
    0.535428 1.640496e-02 1.716700e-14 1 
    0.535703 1.694029e-02 1.770900e-14 1 
    0.535978 1.721336e-02 1.797600e-14 1 
    0.536253 1.780233e-02 1.857200e-14 1 
    0.536528 1.885690e-02 1.965200e-14 1 
    0.536803 1.890601e-02 1.968300e-14 1 
    0.537078 1.921961e-02 1.998900e-14 1 
    0.537353 1.806794e-02 1.877200e-14 1 
    0.537628 1.751509e-02 1.817900e-14 1 
    0.537903 1.741535e-02 1.805700e-14 1 
    0.538178 1.769673e-02 1.833000e-14 1 
    0.538453 1.756986e-02 1.818000e-14 1 
    0.538728 1.836368e-02 1.898200e-14 1 
    0.539003 1.828559e-02 1.888200e-14 1 
    0.539278 1.785349e-02 1.841700e-14 1 
    0.539553 1.726229e-02 1.778900e-14 1 
    0.539828 1.702053e-02 1.752200e-14 1 
    0.540103 1.751434e-02 1.801200e-14 1 
    0.540378 1.734724e-02 1.782200e-14 1 
    0.540653 1.806936e-02 1.854500e-14 1 
    0.540928 1.832183e-02 1.878500e-14 1 
    0.541203 1.838928e-02 1.883500e-14 1 
    0.541478 1.824867e-02 1.867200e-14 1 
    0.541753 1.794241e-02 1.834000e-14 1 
    0.542028 1.780002e-02 1.817600e-14 1 
    0.542303 1.779946e-02 1.815700e-14 1 
    0.542578 1.842004e-02 1.877100e-14 1 
    0.542853 1.849470e-02 1.882800e-14 1 
    0.543128 1.745837e-02 1.775500e-14 1 
    0.543403 1.793867e-02 1.822500e-14 1 
    0.543678 1.777948e-02 1.804500e-14 1 
    0.543953 1.771265e-02 1.795900e-14 1 
    0.544228 1.733072e-02 1.755400e-14 1 
    0.544503 1.777221e-02 1.798300e-14 1 
    0.544778 1.790987e-02 1.810400e-14 1 
    0.545053 1.816265e-02 1.834100e-14 1 
    0.545328 1.875493e-02 1.892000e-14 1 
    0.545603 1.834916e-02 1.849200e-14 1 
    0.545878 1.814715e-02 1.827000e-14 1 
    0.546153 1.928798e-02 1.939900e-14 1 
    0.546428 1.865152e-02 1.874000e-14 1 
    0.546703 1.857565e-02 1.864500e-14 1 
    0.546978 1.875590e-02 1.880700e-14 1 
    0.547253 1.875580e-02 1.878800e-14 1 
    0.547528 1.888158e-02 1.889500e-14 1 
    0.547803 1.893956e-02 1.893400e-14 1 
    0.548078 1.891452e-02 1.889000e-14 1 
    0.548353 1.916504e-02 1.912100e-14 1 
    0.548628 1.857526e-02 1.851400e-14 1 
    0.548903 1.889719e-02 1.881600e-14 1 
    0.549178 1.808272e-02 1.798700e-14 1 
    0.549453 1.835745e-02 1.824200e-14 1 
    0.549728 1.912931e-02 1.899000e-14 1 
    0.550003 1.803222e-02 1.788300e-14 1 
    0.550278 1.828342e-02 1.811400e-14 1 
    0.550553 1.820470e-02 1.801800e-14 1 
    0.550828 1.886208e-02 1.865000e-14 1 
    0.551103 1.868958e-02 1.846100e-14 1 
    0.551378 1.888760e-02 1.863800e-14 1 
    0.551653 1.856257e-02 1.829900e-14 1 
    0.551928 1.931827e-02 1.902500e-14 1 
    0.552203 1.947474e-02 1.916000e-14 1 
    0.552478 1.956232e-02 1.922700e-14 1 
    0.552753 2.038433e-02 2.001500e-14 1 
    0.553028 1.975624e-02 1.937900e-14 1 
    0.553303 1.943403e-02 1.904400e-14 1 
    0.553578 1.944212e-02 1.903300e-14 1 
    0.553853 1.905448e-02 1.863500e-14 1 
    0.554128 1.874690e-02 1.831600e-14 1 
    0.554403 1.816513e-02 1.773000e-14 1 
    0.554678 1.848775e-02 1.802700e-14 1 
    0.554953 1.862928e-02 1.814700e-14 1 
    0.555228 1.885943e-02 1.835300e-14 1 
    0.555503 1.873925e-02 1.821800e-14 1 
    0.555778 1.942707e-02 1.886800e-14 1 
    0.556053 1.854139e-02 1.799000e-14 1 
    0.556328 1.923754e-02 1.864700e-14 1 
    0.556603 1.918118e-02 1.857400e-14 1 
    0.556878 1.825326e-02 1.765800e-14 1 
    0.557153 1.884557e-02 1.821300e-14 1 
    0.557428 1.887453e-02 1.822300e-14 1 
    0.557703 1.924359e-02 1.856100e-14 1 
    0.557978 1.827459e-02 1.760900e-14 1 
    0.558253 1.889616e-02 1.819000e-14 1 
    0.558528 1.858723e-02 1.787500e-14 1 
    0.558803 1.902605e-02 1.827900e-14 1 
    0.559078 1.842902e-02 1.768800e-14 1 
    0.559353 1.927627e-02 1.848300e-14 1 
    0.559628 1.936622e-02 1.855100e-14 1 
    0.559903 1.929748e-02 1.846700e-14 1 
    0.560178 1.915850e-02 1.831600e-14 1 
    0.560453 2.018350e-02 1.927700e-14 1 
    0.560728 1.915631e-02 1.827800e-14 1 
    0.561003 1.936918e-02 1.846300e-14 1 
    0.561278 1.965491e-02 1.871700e-14 1 
    0.561553 2.039210e-02 1.940000e-14 1 
    0.561828 1.966083e-02 1.868600e-14 1 
    0.562103 1.977698e-02 1.877800e-14 1 
    0.562378 2.018113e-02 1.914300e-14 1 
    0.562653 1.922053e-02 1.821400e-14 1 
    0.562928 2.012555e-02 1.905300e-14 1 
    0.563203 2.053326e-02 1.942000e-14 1 
    0.563478 2.016172e-02 1.905000e-14 1 
    0.563753 2.056279e-02 1.941000e-14 1 
    0.564028 2.032093e-02 1.916300e-14 1 
    0.564303 2.043840e-02 1.925500e-14 1 
    0.564578 2.090670e-02 1.967700e-14 1 
    0.564853 1.981356e-02 1.863000e-14 1 
    0.565128 1.992015e-02 1.871200e-14 1 
    0.565403 1.958683e-02 1.838100e-14 1 
    0.565678 1.991734e-02 1.867300e-14 1 
    0.565953 1.911460e-02 1.790300e-14 1 
    0.566228 1.963334e-02 1.837100e-14 1 
    0.566503 1.976688e-02 1.847800e-14 1 
    0.566778 2.037287e-02 1.902600e-14 1 
    0.567053 1.981921e-02 1.849100e-14 1 
    0.567328 2.000688e-02 1.864800e-14 1 
    0.567603 1.939912e-02 1.806400e-14 1 
    0.567878 2.001452e-02 1.861900e-14 1 
    0.568153 1.956047e-02 1.817900e-14 1 
    0.568428 1.960526e-02 1.820300e-14 1 
    0.568703 1.980967e-02 1.837500e-14 1 
    0.568978 1.962164e-02 1.818300e-14 1 
    0.569253 1.964601e-02 1.818800e-14 1 
    0.569528 2.027371e-02 1.875100e-14 1 
    0.569803 2.041667e-02 1.886500e-14 1 
    0.570078 2.014065e-02 1.859200e-14 1 
    0.570353 2.025117e-02 1.867600e-14 1 
    0.570628 2.007750e-02 1.849800e-14 1 
    0.570903 1.980569e-02 1.823000e-14 1 
    0.571178 1.994005e-02 1.833600e-14 1 
    0.571453 2.039902e-02 1.874000e-14 1 
    0.571728 2.067253e-02 1.897300e-14 1 
    0.572003 2.043067e-02 1.873300e-14 1 
    0.572278 2.037936e-02 1.866800e-14 1 
    0.572553 2.059455e-02 1.884700e-14 1 
    0.572828 2.016370e-02 1.843500e-14 1 
    0.573103 2.019949e-02 1.845000e-14 1 
    0.573378 2.021340e-02 1.844500e-14 1 
    0.573653 2.097213e-02 1.911900e-14 1 
    0.573928 2.060026e-02 1.876200e-14 1 
    0.574203 2.004082e-02 1.823500e-14 1 
    0.574478 1.981030e-02 1.800800e-14 1 
    0.574753 1.986561e-02 1.804100e-14 1 
    0.575028 2.017670e-02 1.830600e-14 1 
    0.575303 2.022138e-02 1.832900e-14 1 
    0.575578 2.010820e-02 1.820900e-14 1 
    0.575853 2.028549e-02 1.835200e-14 1 
    0.576128 2.049627e-02 1.852500e-14 1 
    0.576403 2.018139e-02 1.822300e-14 1 
    0.576678 1.979382e-02 1.785600e-14 1 
    0.576953 2.013448e-02 1.814600e-14 1 
    0.577228 2.023698e-02 1.822100e-14 1 
    0.577503 2.047194e-02 1.841500e-14 1 
    0.577778 2.013869e-02 1.809800e-14 1 
    0.578053 1.973239e-02 1.771600e-14 1 
    0.578328 1.995073e-02 1.789500e-14 1 
    0.578603 1.993846e-02 1.786700e-14 1 
    0.578878 2.007247e-02 1.797000e-14 1 
    0.579153 2.047840e-02 1.831600e-14 1 
    0.579428 2.050792e-02 1.832500e-14 1 
    0.579703 2.052627e-02 1.832400e-14 1 
    0.579978 2.036747e-02 1.816500e-14 1 
    0.580253 1.995919e-02 1.778400e-14 1 
    0.580528 2.020279e-02 1.798400e-14 1 
    0.580803 2.097756e-02 1.865600e-14 1 
    0.581078 2.081172e-02 1.849100e-14 1 
    0.581353 2.086297e-02 1.851900e-14 1 
    0.581628 2.068650e-02 1.834500e-14 1 
    0.581903 2.077266e-02 1.840400e-14 1 
    0.582178 2.092335e-02 1.852000e-14 1 
    0.582453 2.073731e-02 1.833800e-14 1 
    0.582728 2.064824e-02 1.824200e-14 1 
    0.583003 2.133958e-02 1.883500e-14 1 
    0.583278 2.125085e-02 1.873900e-14 1 
    0.583553 2.076350e-02 1.829200e-14 1 
    0.583828 2.155000e-02 1.896700e-14 1 
    0.584103 2.144975e-02 1.886100e-14 1 
    0.584378 2.053084e-02 1.803600e-14 1 
    0.584653 2.091933e-02 1.836000e-14 1 
    0.584928 2.126062e-02 1.864200e-14 1 
    0.585203 2.112081e-02 1.850200e-14 1 
    0.585478 2.072361e-02 1.813700e-14 1 
    0.585753 2.087232e-02 1.825000e-14 1 
    0.586028 2.097434e-02 1.832200e-14 1 
    0.586303 2.071674e-02 1.808000e-14 1 
    0.586578 2.088413e-02 1.820900e-14 1 
    0.586853 2.044108e-02 1.780600e-14 1 
    0.587128 2.194827e-02 1.910100e-14 1 
    0.587403 2.101767e-02 1.827400e-14 1 
    0.587678 2.070005e-02 1.798100e-14 1 
    0.587953 2.081046e-02 1.806000e-14 1 
    0.588228 2.088645e-02 1.810900e-14 1 
    0.588503 2.051693e-02 1.777200e-14 1 
    0.588778 2.087353e-02 1.806400e-14 1 
    0.589053 2.017130e-02 1.744000e-14 1 
    0.589328 2.004311e-02 1.731300e-14 1 
    0.589603 2.044885e-02 1.764700e-14 1 
    0.589878 2.023132e-02 1.744300e-14 1 
    0.590153 1.971616e-02 1.698300e-14 1 
    0.590428 2.105343e-02 1.811800e-14 1 
    0.590703 2.223498e-02 1.911700e-14 1 
    0.590978 2.142213e-02 1.840100e-14 1 
    0.591253 2.139663e-02 1.836200e-14 1 
    0.591528 2.142821e-02 1.837200e-14 1 
    0.591803 2.068930e-02 1.772200e-14 1 
    0.592078 2.130214e-02 1.823000e-14 1 
    0.592353 2.154533e-02 1.842100e-14 1 
    0.592628 2.096946e-02 1.791200e-14 1 
    0.592903 2.196970e-02 1.874900e-14 1 
    0.593178 2.154088e-02 1.836600e-14 1 
    0.593453 2.162777e-02 1.842300e-14 1 
    0.593728 2.129178e-02 1.812000e-14 1 
    0.594003 2.119272e-02 1.801900e-14 1 
    0.594278 2.170442e-02 1.843700e-14 1 
    0.594553 2.186591e-02 1.855700e-14 1 
    0.594828 2.112897e-02 1.791500e-14 1 
    0.595103 2.173758e-02 1.841400e-14 1 
    0.595378 2.259423e-02 1.912200e-14 1 
    0.595653 2.255834e-02 1.907400e-14 1 
    0.595928 2.202991e-02 1.861000e-14 1 
    0.596203 2.135355e-02 1.802200e-14 1 
    0.596478 2.189270e-02 1.846000e-14 1 
    0.596753 2.139771e-02 1.802600e-14 1 
    0.597028 2.106218e-02 1.772700e-14 1 
    0.597303 2.136819e-02 1.796800e-14 1 
    0.597578 2.132836e-02 1.791800e-14 1 
    0.597853 2.153266e-02 1.807300e-14 1 
    0.598128 2.176833e-02 1.825400e-14 1 
    0.598403 2.111992e-02 1.769400e-14 1 
    0.598678 2.128987e-02 1.782000e-14 1 
    0.598953 2.169807e-02 1.814500e-14 1 
    0.599228 2.132661e-02 1.781800e-14 1 
    0.599503 2.168163e-02 1.809800e-14 1 
    0.599778 2.162599e-02 1.803500e-14 1 
    0.600053 2.286284e-02 1.904900e-14 1 
    0.600328 2.169810e-02 1.806200e-14 1 
    0.600603 2.206669e-02 1.835200e-14 1 
    0.600878 2.176917e-02 1.808800e-14 1 
    0.601153 2.194329e-02 1.821600e-14 1 
    0.601428 2.305696e-02 1.912300e-14 1 
    0.601703 2.256636e-02 1.869900e-14 1 
    0.601978 2.258699e-02 1.869900e-14 1 
    0.602253 2.248310e-02 1.859600e-14 1 
    0.602528 2.207767e-02 1.824400e-14 1 
    0.602803 2.186406e-02 1.805100e-14 1 
    0.603078 2.239562e-02 1.847300e-14 1 
    0.603353 2.229349e-02 1.837200e-14 1 
    0.603628 2.180492e-02 1.795300e-14 1 
    0.603903 2.194758e-02 1.805400e-14 1 
    0.604178 2.191890e-02 1.801400e-14 1 
    0.604453 2.182072e-02 1.791700e-14 1 
    0.604728 2.299983e-02 1.886800e-14 1 
    0.605003 2.239241e-02 1.835300e-14 1 
    0.605278 2.159945e-02 1.768700e-14 1 
    0.605553 2.177554e-02 1.781500e-14 1 
    0.605828 2.232506e-02 1.824800e-14 1 
    0.606103 2.324169e-02 1.898000e-14 1 
    0.606378 2.573982e-02 2.100100e-14 1 
    0.606653 2.632135e-02 2.145600e-14 1 
    0.606928 2.505718e-02 2.040700e-14 1 
    0.607203 2.269198e-02 1.846400e-14 1 
    0.607478 2.050697e-02 1.667100e-14 1 
    0.607753 1.929064e-02 1.566800e-14 1 
    0.608028 1.901727e-02 1.543200e-14 1 
    0.608303 1.807362e-02 1.465300e-14 1 
    0.608578 1.850107e-02 1.498600e-14 1 
    0.608853 1.950881e-02 1.578800e-14 1 
    0.609128 2.117384e-02 1.712000e-14 1 
    0.609403 2.155567e-02 1.741300e-14 1 
    0.609678 2.198648e-02 1.774500e-14 1 
    0.609953 2.170373e-02 1.750100e-14 1 
    0.610228 2.225704e-02 1.793100e-14 1 
    0.610503 2.218020e-02 1.785300e-14 1 
    0.610778 2.200620e-02 1.769700e-14 1 
    0.611053 2.217040e-02 1.781300e-14 1 
    0.611328 2.168210e-02 1.740500e-14 1 
    0.611603 2.227267e-02 1.786300e-14 1 
    0.611878 2.217290e-02 1.776700e-14 1 
    0.612153 2.216535e-02 1.774500e-14 1 
    0.612428 2.230280e-02 1.783900e-14 1 
    0.612703 2.246673e-02 1.795400e-14 1 
    0.612978 2.264973e-02 1.808400e-14 1 
    0.613253 2.251085e-02 1.795700e-14 1 
    0.613528 2.246705e-02 1.790600e-14 1 
    0.613803 2.226114e-02 1.772600e-14 1 
    0.614078 2.224339e-02 1.769600e-14 1 
    0.614353 2.183808e-02 1.735800e-14 1 
    0.614628 2.231221e-02 1.771900e-14 1 
    0.614903 2.254518e-02 1.788800e-14 1 
    0.615178 2.222854e-02 1.762100e-14 1 
    0.615453 2.297063e-02 1.819300e-14 1 
    0.615728 2.312764e-02 1.830100e-14 1 
    0.616003 2.292316e-02 1.812300e-14 1 
    0.616278 2.274867e-02 1.796900e-14 1 
    0.616553 2.236222e-02 1.764800e-14 1 
    0.616828 2.238091e-02 1.764700e-14 1 
    0.617103 2.302033e-02 1.813500e-14 1 
    0.617378 2.315647e-02 1.822600e-14 1 
    0.617653 2.333606e-02 1.835100e-14 1 
    0.617928 2.236153e-02 1.756900e-14 1 
    0.618203 2.313305e-02 1.815900e-14 1 
    0.618478 2.272777e-02 1.782500e-14 1 
    0.618753 2.219667e-02 1.739300e-14 1 
    0.619028 2.281036e-02 1.785800e-14 1 
    0.619303 2.270279e-02 1.775800e-14 1 
    0.619578 2.231092e-02 1.743600e-14 1 
    0.619853 2.193883e-02 1.713000e-14 1 
    0.620128 2.302353e-02 1.796100e-14 1 
    0.620403 2.222027e-02 1.731900e-14 1 
    0.620678 2.216806e-02 1.726300e-14 1 
    0.620953 2.264398e-02 1.761800e-14 1 
    0.621228 2.345905e-02 1.823600e-14 1 
    0.621503 2.324806e-02 1.805600e-14 1 
    0.621778 2.254697e-02 1.749600e-14 1 
    0.622053 2.184203e-02 1.693400e-14 1 
    0.622328 2.259720e-02 1.750400e-14 1 
    0.622603 2.276706e-02 1.762000e-14 1 
    0.622878 2.338596e-02 1.808300e-14 1 
    0.623153 2.316068e-02 1.789300e-14 1 
    0.623428 2.366566e-02 1.826700e-14 1 
    0.623703 2.223425e-02 1.714700e-14 1 
    0.623978 2.271589e-02 1.750300e-14 1 
    0.624253 2.277878e-02 1.753600e-14 1 
    0.624528 2.418218e-02 1.860000e-14 1 
    0.624803 2.328609e-02 1.789500e-14 1 
    0.625078 2.368820e-02 1.818800e-14 1 
    0.625353 2.294517e-02 1.760200e-14 1 
    0.625628 2.462102e-02 1.887100e-14 1 
    0.625903 2.295681e-02 1.758000e-14 1 
    0.626178 2.295347e-02 1.756200e-14 1 
    0.626453 2.347465e-02 1.794500e-14 1 
    0.626728 2.349265e-02 1.794300e-14 1 
    0.627003 2.316862e-02 1.768000e-14 1 
    0.627278 2.335028e-02 1.780300e-14 1 
    0.627553 2.300581e-02 1.752500e-14 1 
    0.627828 2.262918e-02 1.722300e-14 1 
    0.628103 2.304089e-02 1.752100e-14 1 
    0.628378 2.364810e-02 1.796700e-14 1 
    0.628653 2.266630e-02 1.720600e-14 1 
    0.628928 2.339944e-02 1.774700e-14 1 
    0.629203 2.360466e-02 1.788700e-14 1 
    0.629478 2.291735e-02 1.735100e-14 1 
    0.629753 2.260556e-02 1.710000e-14 1 
    0.630028 2.315985e-02 1.750400e-14 1 
    0.630303 2.398920e-02 1.811500e-14 1 
    0.630578 2.348660e-02 1.772000e-14 1 
    0.630853 2.457499e-02 1.852500e-14 1 
    0.631128 2.400955e-02 1.808300e-14 1 
    0.631403 2.345905e-02 1.765300e-14 1 
    0.631678 2.419240e-02 1.818900e-14 1 
    0.631953 2.303668e-02 1.730500e-14 1 
    0.632228 2.301410e-02 1.727300e-14 1 
    0.632503 2.335550e-02 1.751400e-14 1 
    0.632778 2.388968e-02 1.789900e-14 1 
    0.633053 2.339881e-02 1.751600e-14 1 
    0.633328 2.272122e-02 1.699400e-14 1 
    0.633603 2.284801e-02 1.707400e-14 1 
    0.633878 2.394870e-02 1.788100e-14 1 
    0.634153 2.405259e-02 1.794300e-14 1 
    0.634428 2.347373e-02 1.749600e-14 1 
    0.634703 2.402719e-02 1.789300e-14 1 
    0.634978 2.329404e-02 1.733200e-14 1 
    0.635253 2.478716e-02 1.842700e-14 1 
    0.635528 2.302071e-02 1.709900e-14 1 
    0.635803 2.286682e-02 1.697000e-14 1 
    0.636078 2.333166e-02 1.730000e-14 1 
    0.636353 2.358400e-02 1.747200e-14 1 
    0.636628 2.275868e-02 1.684600e-14 1 
    0.636903 2.325835e-02 1.720100e-14 1 
    0.637178 2.341107e-02 1.729900e-14 1 
    0.637453 2.303306e-02 1.700500e-14 1 
    0.637728 2.382702e-02 1.757600e-14 1 
    0.638003 2.384757e-02 1.757600e-14 1 
    0.638278 2.443714e-02 1.799500e-14 1 
    0.638553 2.430325e-02 1.788100e-14 1 
    0.638828 2.340868e-02 1.720800e-14 1 
    0.639103 2.260513e-02 1.660300e-14 1 
    0.639378 2.383465e-02 1.749100e-14 1 
    0.639653 2.337099e-02 1.713600e-14 1 
    0.639928 2.353441e-02 1.724100e-14 1 
    0.640203 2.382515e-02 1.743900e-14 1 
    0.640478 2.311682e-02 1.690600e-14 1 
    0.640753 2.301624e-02 1.681800e-14 1 
    0.641028 2.338391e-02 1.707200e-14 1 
    0.641303 2.386460e-02 1.740800e-14 1 
    0.641578 2.376982e-02 1.732400e-14 1 
    0.641853 2.336449e-02 1.701400e-14 1 
    0.642128 2.313849e-02 1.683500e-14 1 
    0.642403 2.378146e-02 1.728800e-14 1 
    0.642678 2.428371e-02 1.763800e-14 1 
    0.642953 2.392417e-02 1.736200e-14 1 
    0.643228 2.322473e-02 1.684000e-14 1 
    0.643503 2.369182e-02 1.716400e-14 1 
    0.643778 2.394554e-02 1.733300e-14 1 
    0.644053 2.338943e-02 1.691600e-14 1 
    0.644328 2.364190e-02 1.708400e-14 1 
    0.644603 2.392108e-02 1.727100e-14 1 
    0.644878 2.388466e-02 1.723000e-14 1 
    0.645153 2.339863e-02 1.686500e-14 1 
    0.645428 2.371436e-02 1.707800e-14 1 
    0.645703 2.328706e-02 1.675600e-14 1 
    0.645978 2.350581e-02 1.689900e-14 1 
    0.646253 2.305667e-02 1.656200e-14 1 
    0.646528 2.391926e-02 1.716700e-14 1 
    0.646803 2.366908e-02 1.697300e-14 1 
    0.647078 2.359291e-02 1.690400e-14 1 
    0.647353 2.371214e-02 1.697500e-14 1 
    0.647628 2.354216e-02 1.683900e-14 1 
    0.647903 2.491384e-02 1.780500e-14 1 
    0.648178 2.435801e-02 1.739300e-14 1 
    0.648453 2.441513e-02 1.741900e-14 1 
    0.648728 2.265144e-02 1.614700e-14 1 
    0.649003 2.373770e-02 1.690700e-14 1 
    0.649278 2.378452e-02 1.692600e-14 1 
    0.649553 2.509434e-02 1.784300e-14 1 
    0.649828 2.556884e-02 1.816500e-14 1 
    0.650103 2.808684e-02 1.993700e-14 1 
    0.650378 2.925550e-02 2.074900e-14 1 
    0.650653 2.898814e-02 2.054200e-14 1 
    0.650928 2.711020e-02 1.919500e-14 1 
    0.651203 2.393707e-02 1.693400e-14 1 
    0.651478 2.419073e-02 1.709900e-14 1 
    0.651753 2.504089e-02 1.768500e-14 1 
    0.652028 2.479278e-02 1.749500e-14 1 
    0.652303 2.284221e-02 1.610500e-14 1 
    0.652578 2.373307e-02 1.671900e-14 1 
    0.652853 2.335385e-02 1.643800e-14 1 
    0.653128 2.366787e-02 1.664500e-14 1 
    0.653403 2.475941e-02 1.739800e-14 1 
    0.653678 2.376614e-02 1.668600e-14 1 
    0.653953 2.325443e-02 1.631300e-14 1 
    0.654228 2.402872e-02 1.684200e-14 1 
    0.654503 2.413317e-02 1.690100e-14 1 
    0.654778 2.381333e-02 1.666300e-14 1 
    0.655053 2.448985e-02 1.712200e-14 1 
    0.655328 2.357850e-02 1.647100e-14 1 
    0.655603 2.404816e-02 1.678500e-14 1 
    0.655878 2.376005e-02 1.657000e-14 1 
    0.656153 2.254864e-02 1.571200e-14 1 
    0.656428 2.325555e-02 1.619100e-14 1 
    0.656703 2.447681e-02 1.702700e-14 1 
    0.656978 2.546558e-02 1.770000e-14 1 
    0.657253 2.613632e-02 1.815100e-14 1 
    0.657528 2.555868e-02 1.773500e-14 1 
    0.657803 2.464686e-02 1.708800e-14 1 
    0.658078 2.397890e-02 1.661100e-14 1 
    0.658353 2.382702e-02 1.649200e-14 1 
    0.658628 2.426192e-02 1.677900e-14 1 
    0.658903 2.394789e-02 1.654800e-14 1 
    0.659178 2.329004e-02 1.608000e-14 1 
    0.659453 2.406326e-02 1.660000e-14 1 
    0.659728 2.396147e-02 1.651600e-14 1 
    0.660003 2.424136e-02 1.669500e-14 1 
    0.660278 2.479199e-02 1.706000e-14 1 
    0.660553 2.422651e-02 1.665700e-14 1 
    0.660828 2.500653e-02 1.717900e-14 1 
    0.661103 2.459758e-02 1.688400e-14 1 
    0.661378 2.357407e-02 1.616800e-14 1 
    0.661653 2.459328e-02 1.685300e-14 1 
    0.661928 2.478023e-02 1.696700e-14 1 
    0.662203 2.413136e-02 1.650900e-14 1 
    0.662478 2.434012e-02 1.663800e-14 1 
    0.662753 2.409972e-02 1.646000e-14 1 
    0.663028 2.482602e-02 1.694200e-14 1 
    0.663303 2.441251e-02 1.664600e-14 1 
    0.663578 2.551746e-02 1.738500e-14 1 
    0.663853 2.509791e-02 1.708500e-14 1 
    0.664128 2.490111e-02 1.693700e-14 1 
    0.664403 2.534993e-02 1.722800e-14 1 
    0.664678 2.443873e-02 1.659500e-14 1 
    0.664953 2.472720e-02 1.677700e-14 1 
    0.665228 2.544390e-02 1.724900e-14 1 
    0.665503 2.522135e-02 1.708400e-14 1 
    0.665778 2.653947e-02 1.796200e-14 1 
    0.666053 2.612813e-02 1.766900e-14 1 
    0.666328 2.506932e-02 1.693900e-14 1 
    0.666603 2.415094e-02 1.630500e-14 1 
    0.666878 2.573779e-02 1.736200e-14 1 
    0.667153 2.535992e-02 1.709300e-14 1 
    0.667428 2.503634e-02 1.686100e-14 1 
    0.667703 2.540027e-02 1.709200e-14 1 
    0.667978 2.592688e-02 1.743200e-14 1 
    0.668253 2.536472e-02 1.704000e-14 1 
    0.668528 2.556140e-02 1.715800e-14 1 
    0.668803 2.622654e-02 1.759000e-14 1 
    0.669078 2.580492e-02 1.729300e-14 1 
    0.669353 2.577387e-02 1.725800e-14 1 
    0.669628 2.559925e-02 1.712700e-14 1 
    0.669903 2.639516e-02 1.764500e-14 1 
    0.670178 2.517421e-02 1.681500e-14 1 
    0.670453 2.507051e-02 1.673200e-14 1 
    0.670728 2.488864e-02 1.659700e-14 1 
    0.671003 2.479049e-02 1.651800e-14 1 
    0.671278 2.561441e-02 1.705300e-14 1 
    0.671553 2.527311e-02 1.681200e-14 1 
    0.671828 2.475520e-02 1.645400e-14 1 
    0.672103 2.538228e-02 1.685700e-14 1 
    0.672378 2.666138e-02 1.769200e-14 1 
    0.672653 2.537709e-02 1.682600e-14 1 
    0.672928 2.558652e-02 1.695100e-14 1 
    0.673203 2.529473e-02 1.674400e-14 1 
    0.673478 2.657180e-02 1.757500e-14 1 
    0.673753 2.624850e-02 1.734700e-14 1 
    0.674028 2.608821e-02 1.722700e-14 1 
    0.674303 2.754175e-02 1.817200e-14 1 
    0.674578 2.585322e-02 1.704400e-14 1 
    0.674853 2.692633e-02 1.773700e-14 1 
    0.675128 2.814551e-02 1.852500e-14 1 
    0.675403 3.052684e-02 2.007600e-14 1 
    0.675678 3.732373e-02 2.452600e-14 1 
    0.675953 4.530134e-02 2.974400e-14 1 
    0.676228 4.644027e-02 3.046700e-14 1 
    0.676503 4.324547e-02 2.834800e-14 1 
    0.676778 5.112666e-02 3.348700e-14 1 
    0.677053 9.305993e-02 6.090300e-14 1 
    0.677328 1.588884e-01 1.039000e-13 1 
    0.677603 1.942952e-01 1.269500e-13 1 
    0.677878 1.638184e-01 1.069500e-13 1 
    0.678153 9.946073e-02 6.488100e-14 1 
    0.678428 5.270949e-02 3.435600e-14 1 
    0.678703 3.577005e-02 2.329600e-14 1 
    0.678978 3.879562e-02 2.524600e-14 1 
    0.679253 5.752082e-02 3.740100e-14 1 
    0.679528 7.871132e-02 5.113800e-14 1 
    0.679803 8.712268e-02 5.655700e-14 1 
    0.680078 7.088830e-02 4.598100e-14 1 
    0.680353 4.795901e-02 3.108300e-14 1 
    0.680628 3.392567e-02 2.197000e-14 1 
    0.680903 2.812527e-02 1.819900e-14 1 
    0.681178 2.607235e-02 1.685700e-14 1 
    0.681453 2.706860e-02 1.748700e-14 1 
    0.681728 2.708426e-02 1.748300e-14 1 
    0.682003 2.666889e-02 1.720100e-14 1 
    0.682278 2.658644e-02 1.713400e-14 1 
    0.682553 2.770114e-02 1.783800e-14 1 
    0.682828 2.751520e-02 1.770400e-14 1 
    0.683912 2.669523e-02 1.712200e-14 0 
    0.685488 2.590524e-02 1.653900e-14 0 
    0.687068 2.656767e-02 1.688400e-14 0 
    0.688652 2.596156e-02 1.642300e-14 0 
    0.690240 2.554307e-02 1.608400e-14 0 
    0.691831 2.662300e-02 1.668700e-14 0 
    0.693426 2.668179e-02 1.664700e-14 0 
    0.695024 2.674050e-02 1.660700e-14 0 
    0.696626 2.661480e-02 1.645300e-14 0 
    0.698233 2.679786e-02 1.649000e-14 0 
    0.699842 2.679580e-02 1.641300e-14 0 
    0.701455 2.697850e-02 1.644900e-14 0 
    0.703072 2.728757e-02 1.656100e-14 0 
    0.704693 2.741189e-02 1.656000e-14 0 
    0.706318 2.766318e-02 1.663500e-14 0 
    0.707946 2.759705e-02 1.651900e-14 0 
    0.709578 2.690373e-02 1.603000e-14 0 
    0.711214 2.733986e-02 1.621500e-14 0 
    0.712853 2.752530e-02 1.625000e-14 0 
    0.714496 2.771359e-02 1.628600e-14 0 
    0.716143 2.796801e-02 1.636000e-14 0 
    0.717794 2.822420e-02 1.643400e-14 0 
    0.719449 2.835278e-02 1.643300e-14 0 
    0.721108 2.707450e-02 1.562000e-14 0 
    0.722770 2.854374e-02 1.639200e-14 0 
    0.724436 2.847605e-02 1.627800e-14 0 
    0.726106 2.808202e-02 1.597900e-14 0 
    0.727780 2.960643e-02 1.676900e-14 0 
    0.729457 2.833650e-02 1.597600e-14 0 
    0.731139 2.872748e-02 1.612200e-14 0 
    0.732825 2.768581e-02 1.546600e-14 0 
    0.734514 2.813369e-02 1.564400e-14 0 
    0.736207 2.819669e-02 1.560700e-14 0 
    0.737904 2.806365e-02 1.546200e-14 0 
    0.739605 2.845210e-02 1.560400e-14 0 
    0.741310 2.818777e-02 1.538800e-14 0 
    0.743019 2.710331e-02 1.472800e-14 0 
    0.744732 2.735229e-02 1.479500e-14 0 
    0.746449 2.850564e-02 1.534800e-14 0 
    0.748170 2.870068e-02 1.538200e-14 0 
    0.749894 2.943480e-02 1.570300e-14 0 
    0.751623 2.896056e-02 1.537900e-14 0 
    0.753356 2.797620e-02 1.478800e-14 0 
    0.755092 2.949458e-02 1.551900e-14 0 
    0.756833 3.024746e-02 1.584200e-14 0 
    0.758578 3.116394e-02 1.624700e-14 0 
    0.760326 2.962162e-02 1.537200e-14 0 
    0.762079 3.122964e-02 1.613200e-14 0 
    0.763836 3.058615e-02 1.572700e-14 0 
    0.765597 3.108099e-02 1.590800e-14 0 
    0.767361 3.100650e-02 1.579700e-14 0 
    0.769130 3.100174e-02 1.572200e-14 0 
    0.770904 3.194127e-02 1.612400e-14 0 
    0.772681 3.186580e-02 1.601200e-14 0 
    0.774462 3.099322e-02 1.550200e-14 0 
    0.776247 3.156608e-02 1.571600e-14 0 
    0.778037 3.274898e-02 1.623000e-14 0 
    0.779830 3.244399e-02 1.600500e-14 0 
    0.781628 3.244103e-02 1.593000e-14 0 
    0.783430 3.266240e-02 1.596500e-14 0 
    0.785236 3.213696e-02 1.563600e-14 0 
    0.787046 3.250622e-02 1.574300e-14 0 
    0.788860 3.220611e-02 1.552600e-14 0 
    0.790679 3.250067e-02 1.559600e-14 0 
    0.792501 2.902883e-02 1.386600e-14 0 
    0.794328 3.197479e-02 1.520300e-14 0 
    0.796159 3.102789e-02 1.468500e-14 0 
    0.797995 3.218792e-02 1.516400e-14 0 
    0.799834 3.240895e-02 1.519800e-14 0 
    0.801678 3.210867e-02 1.498800e-14 0 
    0.803526 3.073098e-02 1.427900e-14 0 
    0.805378 3.232358e-02 1.495000e-14 0 
    0.807235 3.224692e-02 1.484600e-14 0 
    0.809096 3.284311e-02 1.505100e-14 0 
    0.810961 3.345066e-02 1.525900e-14 0 
    0.812831 3.352363e-02 1.522200e-14 0 
    0.814704 3.306102e-02 1.494300e-14 0 
    0.816582 3.282909e-02 1.477000e-14 0 
    0.818465 3.207856e-02 1.436600e-14 0 
    0.820352 3.200231e-02 1.426600e-14 0 
    0.822243 3.266836e-02 1.449600e-14 0 
    0.824138 3.342586e-02 1.476400e-14 0 
    0.826038 3.342095e-02 1.469400e-14 0 
    0.827942 3.365060e-02 1.472700e-14 0 
    0.829851 3.341572e-02 1.455700e-14 0 
    0.831764 3.341084e-02 1.448800e-14 0 
    0.833681 3.434345e-02 1.482400e-14 0 
    0.835603 3.355937e-02 1.441900e-14 0 
    0.837529 3.449521e-02 1.475300e-14 0 
    0.839460 3.489170e-02 1.485400e-14 0 
    0.841395 3.425040e-02 1.451400e-14 0 
    0.843335 3.448439e-02 1.454600e-14 0 
    0.845279 3.277634e-02 1.376200e-14 0 
    0.847227 3.315249e-02 1.385600e-14 0 
    0.849180 3.543758e-02 1.474300e-14 0 
    0.851138 3.511099e-02 1.454000e-14 0 
    0.853100 3.518815e-02 1.450500e-14 0 
    0.855067 3.438306e-02 1.410800e-14 0 
    0.857038 3.517833e-02 1.436800e-14 0 
    0.859014 3.493242e-02 1.420200e-14 0 
    0.860994 3.525180e-02 1.426600e-14 0 
    0.862979 3.549396e-02 1.429800e-14 0 
    0.864968 3.665283e-02 1.469700e-14 0 
    0.866962 3.396585e-02 1.355700e-14 0 
    0.868960 3.655901e-02 1.452500e-14 0 
    0.870964 3.564053e-02 1.409500e-14 0 
    0.872971 3.450691e-02 1.358400e-14 0 
    0.874984 3.498268e-02 1.370800e-14 0 
    0.877001 3.696698e-02 1.441900e-14 0 
    0.879023 3.505656e-02 1.361100e-14 0 
    0.881049 3.661818e-02 1.415200e-14 0 
    0.883080 2.683136e-02 1.032200e-14 0 
    0.885116 3.703536e-02 1.418200e-14 0 
    0.887156 3.627231e-02 1.382600e-14 0 
    0.889201 3.585199e-02 1.360300e-14 0 
    0.891251 3.719310e-02 1.404700e-14 0 
    0.893305 3.727429e-02 1.401300e-14 0 
    0.895365 2.485204e-02 9.300000e-15 0 
    0.897429 3.608366e-02 1.344100e-14 0 
    0.899498 3.726160e-02 1.381600e-14 0 
    0.901571 3.883432e-02 1.433300e-14 0 
    0.903650 3.691229e-02 1.356100e-14 0 
    0.905733 3.742174e-02 1.368500e-14 0 
    0.907820 3.917948e-02 1.426200e-14 0 
    0.909913 3.846065e-02 1.393600e-14 0 
    0.912011 3.732126e-02 1.346100e-14 0 
    0.914113 3.854077e-02 1.383700e-14 0 
    0.916220 3.426672e-02 1.224600e-14 0 
    0.918333 3.774207e-02 1.342600e-14 0 
    0.920450 3.852629e-02 1.364200e-14 0 
    0.922571 3.807988e-02 1.342200e-14 0 
    0.924698 3.746616e-02 1.314500e-14 0 
    0.926830 3.781093e-02 1.320500e-14 0 
    0.928966 3.346340e-02 1.163300e-14 0 
    0.931108 3.560324e-02 1.232000e-14 0 
    0.933254 3.912366e-02 1.347600e-14 0 
    0.935406 4.162884e-02 1.427300e-14 0 
    0.937562 3.770128e-02 1.286700e-14 0 
    0.939723 3.947365e-02 1.341000e-14 0 
    0.941890 4.151894e-02 1.404000e-14 0 
    0.944061 3.830004e-02 1.289200e-14 0 
    0.946237 3.565640e-02 1.194700e-14 0 
    0.948418 3.681939e-02 1.228000e-14 0 
    0.950605 3.944733e-02 1.309600e-14 0 
    0.952796 3.775624e-02 1.247700e-14 0 
    0.954993 3.827713e-02 1.259100e-14 0 
    0.957194 3.998386e-02 1.309200e-14 0 
    0.959401 4.147856e-02 1.351900e-14 0 
    0.961612 4.109356e-02 1.333200e-14 0 
    0.963829 4.137307e-02 1.336100e-14 0 
    0.966051 4.146139e-02 1.332800e-14 0 
    0.968278 4.107773e-02 1.314400e-14 0 
    0.970510 4.164408e-02 1.326400e-14 0 
    0.972747 4.202237e-02 1.332300e-14 0 
    0.974990 4.172841e-02 1.316900e-14 0 
    0.977237 4.259902e-02 1.338200e-14 0 
    0.979490 4.269014e-02 1.334900e-14 0 
    0.981748 4.190730e-02 1.304400e-14 0 
    0.984011 4.170695e-02 1.292200e-14 0 
    0.986279 3.964265e-02 1.222600e-14 0 
    0.988553 4.198536e-02 1.288900e-14 0 
    0.990832 4.325582e-02 1.321800e-14 0 
    0.993116 4.305110e-02 1.309500e-14 0 
    0.995405 4.334556e-02 1.312400e-14 0 
    0.997700 4.314087e-02 1.300200e-14 0 
    1.000000 4.373667e-02 1.312100e-14 0 
    1.002305 4.342952e-02 1.296900e-14 0 
    1.004615 4.322287e-02 1.284800e-14 0 
    1.006931 4.321960e-02 1.278800e-14 0 
    1.009253 4.351084e-02 1.281500e-14 0 
    1.011580 4.330580e-02 1.269600e-14 0 
    1.013912 4.420818e-02 1.290100e-14 0 
    1.016249 4.409894e-02 1.281000e-14 0 
    1.018591 4.399117e-02 1.272000e-14 0 
    1.020939 4.408998e-02 1.269000e-14 0 
    1.023294 4.418542e-02 1.265900e-14 0 
    1.025652 4.458565e-02 1.271500e-14 0 
    1.028017 4.478799e-02 1.271400e-14 0 
    1.030386 4.498757e-02 1.271200e-14 0 
    1.035142 4.446089e-02 1.244800e-14 0 
    1.039921 4.404327e-02 1.221800e-14 0 
    1.044720 4.578591e-02 1.258500e-14 0 
    1.049542 4.587907e-02 1.249500e-14 0 
    1.056818 4.660674e-02 1.251900e-14 0 
    1.061696 4.702672e-02 1.251600e-14 0 
    1.064143 4.701726e-02 1.245600e-14 0 
    1.083927 4.721913e-02 1.205700e-14 0 
    1.104079 4.711398e-02 1.159500e-14 0 
    1.124605 4.657181e-02 1.104700e-14 0 
    1.145513 4.678868e-02 1.069700e-14 0 
    1.166809 4.765959e-02 1.050200e-14 0 
    1.188502 4.910449e-02 1.042900e-14 0 
    1.207813 4.944401e-02 1.016800e-14 0 
    1.227440 4.933241e-02 9.823200e-15 0 
    1.250259 5.024946e-02 9.643900e-15 0 
    1.270574 5.106592e-02 9.489700e-15 0 
    1.291219 5.130173e-02 9.231100e-15 0 
    1.312200 5.177660e-02 9.021000e-15 0 
    1.330455 5.213507e-02 8.835900e-15 0 
    1.352073 5.286077e-02 8.674700e-15 0 
    1.374042 5.298270e-02 8.418900e-15 0 
    1.393157 5.334980e-02 8.246200e-15 0 
    1.415794 5.409203e-02 8.095700e-15 0 
    1.435490 5.371929e-02 7.820800e-15 0 
    1.455459 5.298232e-02 7.503300e-15 0 
    1.475707 5.359565e-02 7.383300e-15 0 
    1.496236 5.522480e-02 7.400400e-15 0 
    1.517051 5.509733e-02 7.182100e-15 0 
    1.538154 5.716530e-02 7.248600e-15 0 
    1.559552 5.876687e-02 7.248600e-15 0 
    1.581248 6.125346e-02 7.349400e-15 0 
    1.599558 6.224869e-02 7.298800e-15 0 
    1.621810 6.253637e-02 7.132700e-15 0 
    1.640590 6.167833e-02 6.874700e-15 0 
    1.663413 6.369872e-02 6.906400e-15 0 
    1.682673 6.503227e-02 6.890500e-15 0 
    1.702158 6.548379e-02 6.780400e-15 0 
    1.725838 6.716357e-02 6.764800e-15 0 
    1.745823 6.762879e-02 6.656600e-15 0 
    1.766039 6.825491e-02 6.565300e-15 0 
    1.786487 6.700841e-02 6.298700e-15 0 
    1.807174 6.685470e-02 6.141200e-15 0 
    1.828101 6.593785e-02 5.919100e-15 0 
    1.849270 6.503318e-02 5.705000e-15 0 
    1.870681 6.340649e-02 5.435700e-15 0 
    1.887991 6.311440e-02 5.311900e-15 0 
    1.909854 6.268058e-02 5.155300e-15 0 
    1.931967 6.125400e-02 4.923300e-15 0 
    1.949844 6.111287e-02 4.822300e-15 0 
    1.972423 6.167794e-02 4.756100e-15 0 
    1.990672 6.097258e-02 4.615900e-15 0 
    2.013724 5.999768e-02 4.438700e-15 0 
    2.032357 5.944718e-02 4.317700e-15 0 
    2.055892 5.917369e-02 4.200000e-15 0 
    2.074913 5.931076e-02 4.132900e-15 0 
    2.094113 5.863159e-02 4.011000e-15 0 
    2.118362 5.931072e-02 3.965100e-15 0 
    2.137962 5.917462e-02 3.883800e-15 0 
    2.157745 5.903789e-02 3.804100e-15 0 
    2.177709 5.917429e-02 3.743300e-15 0 
    2.197860 5.917471e-02 3.675000e-15 0 
    2.218197 5.903822e-02 3.599600e-15 0 
    2.238721 5.822793e-02 3.485400e-15 0 
    2.259436 5.863151e-02 3.445500e-15 0 
    2.280341 5.822736e-02 3.359300e-15 0 
    2.301442 5.780748e-02 3.274200e-15 0 
    2.322738 5.737702e-02 3.190500e-15 0 
    2.344228 5.668510e-02 3.094500e-15 0 
    2.365920 5.225898e-02 2.800800e-15 0 
    2.382319 5.240894e-02 2.770300e-15 0 
    2.404363 4.731910e-02 2.455600e-15 0 
    2.426611 4.535669e-02 2.310800e-15 0 
    2.449063 4.657977e-02 2.329800e-15 0 
    2.466040 4.358506e-02 2.150100e-15 0 
    2.488857 4.283847e-02 2.074700e-15 0 
    2.506110 4.284826e-02 2.046700e-15 0 
    2.529297 4.067858e-02 1.907600e-15 0 
    2.552702 4.052914e-02 1.865900e-15 0 
    2.553670 3.209532e-02 1.476500e-15 2 
    2.563350 3.408474e-02 1.556200e-15 2 
    2.573030 3.426983e-02 1.552900e-15 2 
    2.582700 3.495925e-02 1.572300e-15 2 
    2.592380 3.614474e-02 1.613500e-15 2 
    2.602060 3.760456e-02 1.666200e-15 2 
    2.611730 3.735253e-02 1.642800e-15 2 
    2.621410 3.630367e-02 1.584900e-15 2 
    2.631080 3.652124e-02 1.582700e-15 2 
    2.640760 3.754826e-02 1.615300e-15 2 
    2.650440 3.897143e-02 1.664300e-15 2 
    2.660110 3.948511e-02 1.674000e-15 2 
    2.669790 3.995120e-02 1.681500e-15 2 
    2.679470 4.143563e-02 1.731400e-15 2 
    2.689140 4.127967e-02 1.712500e-15 2 
    2.698820 4.027847e-02 1.659000e-15 2 
    2.708490 3.893172e-02 1.592100e-15 2 
    2.718170 3.985329e-02 1.618200e-15 2 
    2.727850 3.939849e-02 1.588400e-15 2 
    2.737520 3.695049e-02 1.479200e-15 2 
    2.747200 3.748397e-02 1.490000e-15 2 
    2.756880 3.761939e-02 1.484900e-15 2 
    2.766550 3.692448e-02 1.447300e-15 2 
    2.776230 3.533611e-02 1.375400e-15 2 
    2.785900 3.410030e-02 1.318100e-15 2 
    2.795580 3.453046e-02 1.325500e-15 2 
    2.805260 3.421389e-02 1.304300e-15 2 
    2.814930 3.424152e-02 1.296400e-15 2 
    2.824610 3.411041e-02 1.282600e-15 2 
    2.834290 3.378764e-02 1.261800e-15 2 
    2.843960 3.568743e-02 1.323700e-15 2 
    2.853640 3.590364e-02 1.322700e-15 2 
    2.863310 3.489300e-02 1.276800e-15 2 
    2.872990 3.513758e-02 1.277100e-15 2 
    2.882670 3.548001e-02 1.280900e-15 2 
    2.892340 3.647415e-02 1.308000e-15 2 
    2.902020 3.596074e-02 1.281000e-15 2 
    2.911700 3.512434e-02 1.242900e-15 2 
    2.921370 3.396408e-02 1.193900e-15 2 
    2.931050 3.366261e-02 1.175500e-15 2 
    2.940720 3.356224e-02 1.164300e-15 2 
    2.950400 3.472949e-02 1.196900e-15 2 
    2.960080 3.438238e-02 1.177200e-15 2 
    2.969750 3.457799e-02 1.176200e-15 2 
    2.979430 3.293072e-02 1.112900e-15 2 
    2.989100 3.374941e-02 1.133200e-15 2 
    2.998780 3.305110e-02 1.102600e-15 2 
    3.008460 3.281228e-02 1.087600e-15 2 
    3.018130 3.136570e-02 1.033000e-15 2 
    3.027810 3.235869e-02 1.058900e-15 2 
    3.037490 3.270432e-02 1.063400e-15 2 
    3.047160 3.250434e-02 1.050200e-15 2 
    3.056840 3.169577e-02 1.017600e-15 2 
    3.066510 3.217245e-02 1.026400e-15 2 
    3.076190 3.051610e-02 9.674400e-16 2 
    3.085870 2.977683e-02 9.380900e-16 2 
    3.095540 3.117017e-02 9.758600e-16 2 
    3.105220 3.236308e-02 1.006900e-15 2 
    3.114900 3.309558e-02 1.023300e-15 2 
    3.124570 3.232834e-02 9.934000e-16 2 
    3.134250 3.326572e-02 1.015900e-15 2 
    3.143920 3.251353e-02 9.868300e-16 2 
    3.153600 3.262554e-02 9.841600e-16 2 
    3.163280 3.214804e-02 9.638300e-16 2 
    3.172950 3.182238e-02 9.482599e-16 2 
    3.182630 3.217418e-02 9.529200e-16 2 
    3.192310 3.202235e-02 9.426800e-16 2 
    3.201980 3.241281e-02 9.484200e-16 2 
    3.211660 3.290512e-02 9.570300e-16 2 
    3.221330 3.425160e-02 9.902199e-16 2 
    3.231010 3.424619e-02 9.841401e-16 2 
    3.240690 3.528696e-02 1.008000e-15 2 
    3.250360 3.555421e-02 1.009600e-15 2 
    3.260040 3.663069e-02 1.034000e-15 2 
    3.269720 3.650643e-02 1.024400e-15 2 
    3.279390 3.606308e-02 1.006000e-15 2 
    3.289070 3.652871e-02 1.013000e-15 2 
    3.298750 3.721197e-02 1.025900e-15 2 
    3.308420 3.856515e-02 1.057000e-15 2 
    3.318100 4.128671e-02 1.125000e-15 2 
    3.327770 4.379788e-02 1.186500e-15 2 
    3.337450 4.872012e-02 1.312200e-15 2 
    3.347130 5.389525e-02 1.443200e-15 2 
    3.356800 5.893220e-02 1.569000e-15 2 
    3.366480 6.248364e-02 1.654000e-15 2 
    3.376160 6.505480e-02 1.712200e-15 2 
    3.385830 6.842005e-02 1.790500e-15 2 
    3.395510 6.891944e-02 1.793300e-15 2 
    3.405180 6.890672e-02 1.782800e-15 2 
    3.414860 6.857993e-02 1.764300e-15 2 
    3.424540 7.000910e-02 1.790900e-15 2 
    3.434210 6.787725e-02 1.726600e-15 2 
    3.443890 6.340558e-02 1.603800e-15 2 
    3.453570 6.038714e-02 1.518900e-15 2 
    3.463240 5.934246e-02 1.484300e-15 2 
    3.472920 5.633774e-02 1.401300e-15 2 
    3.482590 5.356724e-02 1.325000e-15 2 
    3.492270 5.233282e-02 1.287300e-15 2 
    3.501950 5.215732e-02 1.275900e-15 2 
    3.511620 5.212925e-02 1.268200e-15 2 
    3.521300 5.140029e-02 1.243600e-15 2 
    3.530980 5.049467e-02 1.215000e-15 2 
    3.540650 4.856943e-02 1.162300e-15 2 
    3.550330 4.632280e-02 1.102500e-15 2 
    3.560000 4.602206e-02 1.089400e-15 2 
    3.569680 4.668470e-02 1.099100e-15 2 
    3.579360 4.478585e-02 1.048700e-15 2 
    3.589030 4.276580e-02 9.960099e-16 2 
    3.598710 4.186275e-02 9.697400e-16 2 
    3.608390 4.265248e-02 9.827400e-16 2 
    3.618060 4.048761e-02 9.278800e-16 2 
    3.627740 3.786450e-02 8.631400e-16 2 
    3.637410 3.815484e-02 8.651400e-16 2 
    3.647090 4.152211e-02 9.365000e-16 2 
    3.656770 4.348831e-02 9.756600e-16 2 
    3.666440 4.320958e-02 9.643000e-16 2 
    3.676120 4.078077e-02 9.053100e-16 2 
    3.685800 3.963323e-02 8.752200e-16 2 
    3.695470 4.013873e-02 8.817500e-16 2 
    3.705150 3.962810e-02 8.659900e-16 2 
    3.714820 3.861715e-02 8.395100e-16 2 
    3.724500 3.816853e-02 8.254500e-16 2 
    3.734180 3.924102e-02 8.442500e-16 2 
    3.743850 3.955245e-02 8.465600e-16 2 
    3.753530 3.805154e-02 8.102400e-16 2 
    3.763210 3.719065e-02 7.878400e-16 2 
    3.772880 3.682403e-02 7.760800e-16 2 
    3.782560 3.638798e-02 7.629700e-16 2 
    3.792230 3.532168e-02 7.368400e-16 2 
    3.801910 3.577205e-02 7.424400e-16 2 
    3.811590 3.526095e-02 7.281200e-16 2 
    3.821260 3.603927e-02 7.404300e-16 2 
    3.830940 3.460184e-02 7.073100e-16 2 
    3.840620 3.610593e-02 7.343400e-16 2 
    3.850290 3.567769e-02 7.219900e-16 2 
    3.859970 3.592337e-02 7.233200e-16 2 
    3.869640 3.498003e-02 7.008100e-16 2 
    3.879320 3.536293e-02 7.049500e-16 2 
    3.889000 3.525580e-02 6.993200e-16 2 
    3.898670 3.531583e-02 6.970400e-16 2 
    3.908350 3.460087e-02 6.795500e-16 2 
    3.918030 3.540341e-02 6.918800e-16 2 
    3.927700 3.549559e-02 6.902700e-16 2 
    3.937380 3.601958e-02 6.970200e-16 2 
    3.947050 3.479096e-02 6.699500e-16 2 
    3.956730 3.585263e-02 6.870200e-16 2 
    3.966410 3.385038e-02 6.454900e-16 2 
    3.976080 3.452047e-02 6.550700e-16 2 
    3.985760 3.176251e-02 5.998100e-16 2 
    3.995430 3.336736e-02 6.270700e-16 2 
    4.005110 3.171929e-02 5.932200e-16 2 
    4.014790 3.329929e-02 6.197700e-16 2 
    4.024460 3.081126e-02 5.707100e-16 2 
    4.034140 3.304385e-02 6.091300e-16 2 
    4.043820 3.257959e-02 5.977000e-16 2 
    4.053490 3.363545e-02 6.141300e-16 2 
    4.063170 3.347601e-02 6.083100e-16 2 
    4.072840 3.411604e-02 6.170000e-16 2 
    4.082520 3.344894e-02 6.020700e-16 2 
    4.092200 3.283799e-02 5.882800e-16 2 
    4.101870 3.071970e-02 5.477400e-16 2 
    4.111550 3.146273e-02 5.583500e-16 2 
    4.121230 3.270486e-02 5.776700e-16 2 
    4.130900 3.624123e-02 6.371400e-16 2 
    4.140580 3.699705e-02 6.473900e-16 2 
    4.150250 3.818688e-02 6.651000e-16 2 
    4.159930 3.881919e-02 6.729700e-16 2 
    4.169610 3.883143e-02 6.700600e-16 2 
    4.179280 3.827874e-02 6.574700e-16 2 
    4.188960 4.022212e-02 6.876600e-16 2 
    4.198640 4.071378e-02 6.928600e-16 2 
    4.208310 3.918073e-02 6.637100e-16 2 
    4.217990 3.577087e-02 6.031700e-16 2 
    4.227660 3.513377e-02 5.897200e-16 2 
    4.237340 3.376866e-02 5.642200e-16 2 
    4.247020 3.341147e-02 5.557100e-16 2 
    4.256690 3.129222e-02 5.181000e-16 2 
    4.266370 3.200018e-02 5.274200e-16 2 
    4.276050 3.369914e-02 5.529100e-16 2 
    4.285720 3.416397e-02 5.580100e-16 2 
    4.295400 3.038114e-02 4.939900e-16 2 
    4.305070 2.901625e-02 4.696800e-16 2 
    4.314750 2.686939e-02 4.329800e-16 2 
    4.324430 2.799868e-02 4.491600e-16 2 
    4.334100 2.713973e-02 4.334400e-16 2 
    4.343780 3.047628e-02 4.845600e-16 2 
    4.353460 3.271537e-02 5.178500e-16 2 
    4.363130 3.417695e-02 5.385900e-16 2 
    4.372810 3.253327e-02 5.104200e-16 2 
    4.382480 3.204223e-02 5.005000e-16 2 
    4.392160 3.093452e-02 4.810700e-16 2 
    4.401840 2.979219e-02 4.612700e-16 2 
    4.411510 2.878150e-02 4.436700e-16 2 
    4.421190 2.984424e-02 4.580400e-16 2 
    4.430870 2.982324e-02 4.557200e-16 2 
    4.440540 2.959337e-02 4.502400e-16 2 
    4.450220 2.999847e-02 4.544200e-16 2 
    4.459890 3.159890e-02 4.765900e-16 2 
    4.469570 3.047167e-02 4.576000e-16 2 
    4.479250 2.972635e-02 4.444800e-16 2 
    4.488920 2.991999e-02 4.454500e-16 2 
    4.498600 3.091196e-02 4.582400e-16 2 
    4.508280 3.058851e-02 4.515000e-16 2 
    4.517950 2.879503e-02 4.232100e-16 2 
    4.527630 2.902583e-02 4.247800e-16 2 
    4.537300 2.870664e-02 4.183200e-16 2 
    4.546980 2.833306e-02 4.111200e-16 2 
    4.556660 2.643080e-02 3.818900e-16 2 
    4.566330 2.470748e-02 3.554800e-16 2 
    4.576010 2.595567e-02 3.718600e-16 2 
    4.585690 2.859953e-02 4.080100e-16 2 
    4.595360 2.905182e-02 4.127200e-16 2 
    4.605040 2.940761e-02 4.160200e-16 2 
    4.614710 2.999549e-02 4.225600e-16 2 
    4.624390 2.822247e-02 3.959200e-16 2 
    4.634070 2.672801e-02 3.733900e-16 2 
    4.643740 2.438996e-02 3.393100e-16 2 
    4.653420 2.602344e-02 3.605300e-16 2 
    4.663100 2.353480e-02 3.247000e-16 2 
    4.672770 2.324385e-02 3.193600e-16 2 
    4.682450 2.257433e-02 3.088800e-16 2 
    4.692120 2.517602e-02 3.430600e-16 2 
    4.701800 2.379516e-02 3.229100e-16 2 
    4.711480 2.475082e-02 3.345000e-16 2 
    4.721150 2.507913e-02 3.375500e-16 2 
    4.730830 2.686436e-02 3.601000e-16 2 
    4.740510 2.956773e-02 3.947200e-16 2 
    4.750180 2.965990e-02 3.943400e-16 2 
    4.759860 3.109120e-02 4.116900e-16 2 
    4.769530 3.012573e-02 3.972900e-16 2 
    4.779210 2.971062e-02 3.902300e-16 2 
    4.788890 2.813860e-02 3.680900e-16 2 
    4.798560 2.443001e-02 3.182900e-16 2 
    4.808240 2.738312e-02 3.553300e-16 2 
    4.817920 2.843745e-02 3.675300e-16 2 
    4.827590 3.122565e-02 4.019500e-16 2 
    4.837270 2.987997e-02 3.830900e-16 2 
    4.846940 3.069181e-02 3.919300e-16 2 
    4.856620 3.037896e-02 3.863900e-16 2 
    4.866300 3.187604e-02 4.038200e-16 2 
    4.875970 2.672716e-02 3.372500e-16 2 
    4.885650 2.847799e-02 3.579200e-16 2 
    4.895330 2.992496e-02 3.746200e-16 2 
    4.905000 3.362570e-02 4.192900e-16 2 
    4.914680 3.447029e-02 4.281300e-16 2 
    4.924350 3.708999e-02 4.588600e-16 2 
    4.934030 3.680993e-02 4.536100e-16 2 
    4.943710 3.383104e-02 4.152700e-16 2 
    4.953380 2.496372e-02 3.052300e-16 2 
    5.003015 2.614150e-02 3.133200e-16 2 
    5.053045 2.736145e-02 3.214800e-16 0 
    5.103575 2.862681e-02 3.297200e-16 0 
    5.154611 2.993909e-02 3.380400e-16 0 
    5.206157 3.129978e-02 3.464400e-16 0 
    5.217250 3.159753e-02 3.482500e-16 3 
    5.247490 3.670844e-02 3.999300e-16 3 
    5.277730 3.851525e-02 4.148200e-16 3 
    5.307970 4.284409e-02 4.562000e-16 3 
    5.338210 4.275423e-02 4.501000e-16 3 
    5.368460 5.245306e-02 5.460000e-16 3 
    5.398700 5.660146e-02 5.826000e-16 3 
    5.428940 6.121622e-02 6.231000e-16 3 
    5.459180 5.206721e-02 5.241200e-16 3 
    5.489420 5.130469e-02 5.107700e-16 3 
    5.519670 5.567089e-02 5.481800e-16 3 
    5.549910 4.576385e-02 4.457300e-16 3 
    5.580150 4.437902e-02 4.275700e-16 3 
    5.610390 4.313956e-02 4.111600e-16 3 
    5.640630 4.077311e-02 3.844500e-16 3 
    5.670880 4.517894e-02 4.214600e-16 3 
    5.701120 4.942155e-02 4.561600e-16 3 
    5.731360 5.137504e-02 4.692000e-16 3 
    5.761600 5.653838e-02 5.109500e-16 3 
    5.791840 6.994665e-02 6.255400e-16 3 
    5.822090 7.960308e-02 7.045200e-16 3 
    5.852330 8.891011e-02 7.787800e-16 3 
    5.882570 9.358475e-02 8.113200e-16 3 
    5.912810 9.288292e-02 7.970200e-16 3 
    5.943050 9.152078e-02 7.773600e-16 3 
    5.973300 8.683161e-02 7.300800e-16 3 
    6.003540 8.328579e-02 6.932300e-16 3 
    6.033780 8.632709e-02 7.113600e-16 3 
    6.064020 9.413350e-02 7.679700e-16 3 
    6.094260 9.375499e-02 7.573100e-16 3 
    6.124510 9.465054e-02 7.570100e-16 3 
    6.154750 1.116162e-01 8.839500e-16 3 
    6.184990 1.338893e-01 1.050000e-15 3 
    6.215230 1.498937e-01 1.164100e-15 3 
    6.245470 1.570247e-01 1.207700e-15 3 
    6.275720 1.619891e-01 1.233900e-15 3 
    6.305960 1.926886e-01 1.453700e-15 3 
    6.336200 2.681982e-01 2.004100e-15 3 
    6.366440 4.050994e-01 2.998400e-15 3 
    6.396680 5.105824e-01 3.743500e-15 3 
    6.426930 5.300038e-01 3.849400e-15 3 
    6.457170 4.734611e-01 3.406600e-15 3 
    6.487410 3.646654e-01 2.599400e-15 3 
    6.517650 3.252251e-01 2.296800e-15 3 
    6.547890 2.809447e-01 1.965800e-15 3 
    6.578140 2.534292e-01 1.757000e-15 3 
    6.608380 2.222110e-01 1.526500e-15 3 
    6.638620 1.961466e-01 1.335200e-15 3 
    6.668860 1.826386e-01 1.232000e-15 3 
    6.699100 1.711794e-01 1.144300e-15 3 
    6.729350 1.672797e-01 1.108200e-15 3 
    6.759590 1.642172e-01 1.078200e-15 3 
    6.789830 1.615868e-01 1.051500e-15 3 
    6.820070 1.715878e-01 1.106700e-15 3 
    6.850310 1.796669e-01 1.148600e-15 3 
    6.880560 1.787480e-01 1.132700e-15 3 
    6.910800 1.798928e-01 1.130000e-15 3 
    6.941040 1.798486e-01 1.119900e-15 3 
    6.971280 1.791350e-01 1.105800e-15 3 
    7.001520 1.779963e-01 1.089300e-15 3 
    7.031770 1.813012e-01 1.100000e-15 3 
    7.062010 1.916414e-01 1.152800e-15 3 
    7.092250 2.048552e-01 1.221800e-15 3 
    7.122490 2.187810e-01 1.293800e-15 3 
    7.152730 2.344563e-01 1.374800e-15 3 
    7.182980 2.656637e-01 1.544700e-15 3 
    7.213220 3.150450e-01 1.816500e-15 3 
    7.243460 2.916680e-01 1.667700e-15 3 
    7.273700 2.565094e-01 1.454500e-15 3 
    7.303940 2.580065e-01 1.450900e-15 3 
    7.334190 2.662263e-01 1.484800e-15 3 
    7.364430 2.714815e-01 1.501700e-15 3 
    7.394670 2.730230e-01 1.497900e-15 3 
    7.424910 2.867091e-01 1.560200e-15 3 
    7.455150 3.001836e-01 1.620300e-15 3 
    7.485400 3.124861e-01 1.673100e-15 3 
    7.515640 3.382689e-01 1.796600e-15 3 
    7.545880 3.610395e-01 1.902200e-15 3 
    7.576120 3.833012e-01 2.003400e-15 3 
    7.636600 4.531477e-01 2.331100e-15 3 
    7.697090 5.676875e-01 2.874600e-15 3 
    7.757570 6.855493e-01 3.417500e-15 3 
    7.818050 8.058312e-01 3.955200e-15 3 
    7.878540 8.611785e-01 4.162200e-15 3 
    7.939020 8.482734e-01 4.037600e-15 3 
    7.999510 8.227686e-01 3.857200e-15 3 
    8.059990 8.024501e-01 3.705700e-15 3 
    8.120470 7.549264e-01 3.434500e-15 3 
    8.180959 6.801456e-01 3.048700e-15 3 
    8.241440 5.940853e-01 2.624000e-15 3 
    8.301920 5.191656e-01 2.259800e-15 3 
    8.362409 4.613741e-01 1.979300e-15 3 
    8.422890 4.233056e-01 1.790000e-15 3 
    8.483370 4.198588e-01 1.750200e-15 3 
    8.543860 4.203442e-01 1.727500e-15 3 
    8.604340 4.257734e-01 1.725300e-15 3 
    8.664830 4.354348e-01 1.739900e-15 3 
    8.725310 4.537917e-01 1.788200e-15 3 
    8.785791 5.002949e-01 1.944400e-15 3 
    8.846280 5.296150e-01 2.030300e-15 3 
    8.906760 5.217823e-01 1.973200e-15 3 
    8.967241 4.623924e-01 1.725100e-15 3 
    9.027730 3.827507e-01 1.408900e-15 3 
    9.088210 3.119084e-01 1.132900e-15 3 
    9.148690 2.538130e-01 9.097400e-16 3 
    9.209180 2.240908e-01 7.926900e-16 3 
    9.269660 2.087529e-01 7.288300e-16 3 
    9.330150 1.900368e-01 6.549100e-16 3 
    9.390630 1.719087e-01 5.848300e-16 3 
    9.451110 1.623365e-01 5.452200e-16 3 
    9.511599 1.622830e-01 5.381300e-16 3 
    9.572080 1.593048e-01 5.216000e-16 3 
    9.632560 1.529704e-01 4.945900e-16 3 
    9.693050 1.515686e-01 4.839600e-16 3 
    9.753530 1.484810e-01 4.682400e-16 3 
    9.814009 1.494998e-01 4.656600e-16 3 
    9.874500 1.530808e-01 4.709900e-16 3 
    9.934980 1.597653e-01 4.855900e-16 3 
    9.995470 1.583398e-01 4.754500e-16 3 
   10.055950 1.454136e-01 4.314000e-16 3 
   10.116430 1.416995e-01 4.153700e-16 3 
   10.176920 1.384520e-01 4.010400e-16 3 
   10.237400 1.367417e-01 3.914200e-16 3 
   10.297880 1.364816e-01 3.861000e-16 3 
   10.358370 1.379646e-01 3.857500e-16 3 
   10.418850 1.407129e-01 3.888800e-16 3 
   10.479330 1.401952e-01 3.829900e-16 3 
   10.539820 1.369490e-01 3.698400e-16 3 
   10.600300 1.418663e-01 3.787600e-16 3 
   10.660791 1.451342e-01 3.831000e-16 3 
   10.721270 1.486132e-01 3.878700e-16 3 
   10.781750 1.599159e-01 4.127000e-16 3 
   10.842241 1.808336e-01 4.614900e-16 3 
   10.902720 1.969744e-01 4.971200e-16 3 
   10.963200 2.126272e-01 5.307200e-16 3 
   11.023690 2.122337e-01 5.239400e-16 3 
   11.084170 2.142412e-01 5.231400e-16 3 
   11.144651 2.159232e-01 5.215400e-16 3 
   11.205140 2.237518e-01 5.346300e-16 3 
   11.265620 2.545137e-01 6.016200e-16 3 
   11.326110 3.044573e-01 7.120100e-16 3 
   11.386590 3.593459e-01 8.314700e-16 3 
   11.447070 4.172867e-01 9.553600e-16 3 
   11.507560 6.174929e-01 1.398900e-15 3 
   11.568040 9.567652e-01 2.144900e-15 3 
   11.628520 1.002494e+00 2.224100e-15 3 
   11.689009 8.585559e-01 1.885100e-15 3 
   11.749490 6.995479e-01 1.520200e-15 3 
   11.809970 5.776141e-01 1.242400e-15 3 
   11.870459 4.901243e-01 1.043500e-15 3 
   11.930940 4.336659e-01 9.139600e-16 3 
   11.991430 3.886714e-01 8.108900e-16 3 
   12.051910 3.584734e-01 7.404000e-16 3 
   12.112390 3.489155e-01 7.134800e-16 3 
   12.172880 3.528093e-01 7.142900e-16 3 
   12.233360 3.716335e-01 7.449800e-16 3 
   12.293841 4.072931e-01 8.084500e-16 3 
   12.354330 4.212573e-01 8.280000e-16 3 
   12.414810 4.134162e-01 8.046900e-16 3 
   12.475291 3.997067e-01 7.704800e-16 3 
   12.535780 3.944254e-01 7.529800e-16 3 
   12.596260 3.983780e-01 7.532400e-16 3 
   12.656750 4.239783e-01 7.940000e-16 3 
   12.717230 4.433286e-01 8.223600e-16 3 
   12.777710 4.607639e-01 8.466300e-16 3 
   12.838200 4.858985e-01 8.844200e-16 3 
   12.898680 5.197806e-01 9.372401e-16 3 
   12.959160 5.557577e-01 9.927800e-16 3 
   13.019651 5.933461e-01 1.050100e-15 3 
   13.080130 6.245348e-01 1.095100e-15 3 
   13.140609 6.923717e-01 1.202900e-15 3 
   13.201100 8.894111e-01 1.531100e-15 3 
   13.261580 8.731334e-01 1.489400e-15 3 
   13.322059 5.031126e-01 8.504400e-16 3 
   13.382550 3.810375e-01 6.382800e-16 3 
   13.443030 3.548581e-01 5.890900e-16 3 
   13.503520 3.486316e-01 5.735800e-16 3 
   13.564000 3.479960e-01 5.674400e-16 3 
   13.624480 3.399315e-01 5.493800e-16 3 
   13.684970 3.418892e-01 5.476700e-16 3 
   13.745450 3.501451e-01 5.559700e-16 3 
   13.805930 3.450181e-01 5.430400e-16 3 
   13.866420 3.384663e-01 5.280900e-16 3 
   13.926900 3.382508e-01 5.231800e-16 3 
   13.987380 3.400602e-01 5.214400e-16 3 
   14.047870 3.358509e-01 5.105600e-16 3 
   14.108350 3.264347e-01 4.920000e-16 3 
   14.168841 3.162644e-01 4.726100e-16 3 
   14.229320 3.034876e-01 4.496700e-16 3 
   14.289800 2.977893e-01 4.375000e-16 3 
   14.350291 2.972749e-01 4.330700e-16 3 
   14.410770 2.977231e-01 4.300900e-16 3 
   14.471250 2.924091e-01 4.188900e-16 3 
   14.577409 3.104779e-01 4.383200e-16 3 
   14.662091 3.192049e-01 4.454500e-16 3 
   14.746770 3.103330e-01 4.281100e-16 3 
   14.831450 2.956936e-01 4.032700e-16 3 
   14.916120 2.856112e-01 3.851100e-16 3 
   15.000800 2.723540e-01 3.631000e-16 3 
   15.085480 2.665092e-01 3.513300e-16 3 
   15.170150 2.687575e-01 3.503500e-16 3 
   15.254830 2.682601e-01 3.458300e-16 3 
   15.339509 2.633484e-01 3.357600e-16 3 
   15.424180 2.608156e-01 3.288900e-16 3 
   15.508859 2.639358e-01 3.292000e-16 3 
   15.593541 2.673933e-01 3.299000e-16 3 
   15.678211 2.696495e-01 3.291000e-16 3 
   15.762891 2.766782e-01 3.340600e-16 3 
   15.847570 2.813834e-01 3.361200e-16 3 
   15.932239 2.982830e-01 3.525300e-16 3 
   16.016920 3.830254e-01 4.479100e-16 3 
   16.101600 4.058826e-01 4.696600e-16 3 
   16.186280 3.259750e-01 3.732600e-16 3 
   16.270950 3.167219e-01 3.589000e-16 3 
   16.355631 3.203303e-01 3.592400e-16 3 
   16.440309 3.311877e-01 3.676000e-16 3 
   16.524981 3.361917e-01 3.693400e-16 3 
   16.609659 3.410622e-01 3.708800e-16 3 
   16.694339 3.573225e-01 3.846300e-16 3 
   16.779011 3.862663e-01 4.116000e-16 3 
   16.863689 4.530048e-01 4.778800e-16 3 
   16.948370 5.188547e-01 5.418900e-16 3 
   17.033039 5.495827e-01 5.682900e-16 3 
   17.117720 5.064592e-01 5.185300e-16 3 
   17.202400 4.974360e-01 5.042900e-16 3 
   17.287069 5.197772e-01 5.217900e-16 3 
   17.371750 5.244796e-01 5.213900e-16 3 
   17.456430 5.415810e-01 5.331800e-16 3 
   17.541109 6.075862e-01 5.924000e-16 3 
   17.625780 6.133934e-01 5.923300e-16 3 
   17.710461 5.753996e-01 5.503400e-16 3 
   17.795139 5.408989e-01 5.124300e-16 3 
   17.879811 5.463995e-01 5.127500e-16 3 
   17.964491 5.519207e-01 5.130600e-16 3 
   18.049170 5.091173e-01 4.688400e-16 3 
   18.133841 4.579592e-01 4.178000e-16 3 
   18.218519 4.345092e-01 3.927300e-16 3 
   18.303200 4.471340e-01 4.004100e-16 3 
   18.387870 4.373276e-01 3.880300e-16 3 
   18.472550 4.407961e-01 3.875300e-16 3 
   18.557230 4.217509e-01 3.674100e-16 3 
   18.641898 4.131091e-01 3.566200e-16 3 
   18.726580 4.106285e-01 3.512800e-16 3 
   18.811261 4.119090e-01 3.492100e-16 3 
   18.895941 4.148878e-01 3.485900e-16 3 
   18.980609 4.231655e-01 3.523800e-16 3 
   19.065291 4.282463e-01 3.534500e-16 3 
   19.149969 4.457131e-01 3.646200e-16 3 
   19.234641 4.962673e-01 4.024100e-16 3 
   19.319320 7.028036e-01 5.649000e-16 3 
   19.404000 6.127534e-01 4.882300e-16 3 
   19.488670 4.874080e-01 3.849900e-16 3 
   19.573352 4.704410e-01 3.683800e-16 3 
   19.658030 4.601834e-01 3.572500e-16 3 
   19.742700 4.649357e-01 3.578500e-16 3 
   19.827380 4.594976e-01 3.506500e-16 3 
   19.912059 4.602061e-01 3.482100e-16 3 
   19.996731 4.613958e-01 3.461600e-16 3 
   20.081409 4.632416e-01 3.446200e-16 3 
   20.166091 4.737177e-01 3.494600e-16 3 
   20.250770 4.748885e-01 3.474000e-16 3 
   20.335439 4.689845e-01 3.402300e-16 3 
   20.420120 4.729819e-01 3.402900e-16 3 
   20.589470 4.605535e-01 3.259200e-16 3 
   20.758830 5.010843e-01 3.488400e-16 3 
   20.928181 4.984166e-01 3.413900e-16 3 
   21.097530 4.990377e-01 3.363500e-16 3 
   21.266889 5.222635e-01 3.464200e-16 3 
   21.436239 5.389774e-01 3.518800e-16 3 
   21.605600 5.442289e-01 3.497600e-16 3 
   21.774950 5.590210e-01 3.537000e-16 3 
   21.944300 5.686972e-01 3.542900e-16 3 
   22.113661 5.804270e-01 3.560800e-16 3 
   22.283011 5.919330e-01 3.576400e-16 3 
   22.452359 6.025272e-01 3.585700e-16 3 
   22.621719 6.271400e-01 3.676500e-16 3 
   22.791070 6.327558e-01 3.654500e-16 3 
   22.960430 6.424759e-01 3.656100e-16 3 
   23.129780 6.613149e-01 3.708400e-16 3 
   23.299130 6.844969e-01 3.782800e-16 3 
   23.468491 7.041412e-01 3.835400e-16 3 
   23.637841 7.311397e-01 3.925600e-16 3 
   23.807191 7.343987e-01 3.887200e-16 3 
   23.976548 7.444055e-01 3.884700e-16 3 
   24.145900 7.610801e-01 3.916200e-16 3 
   24.315259 7.871463e-01 3.994100e-16 3 
   24.484609 8.086403e-01 4.046600e-16 3 
   24.653959 8.155901e-01 4.025500e-16 3 
   24.823320 8.197477e-01 3.991000e-16 3 
   24.992670 8.267650e-01 3.970800e-16 3 
   25.162020 8.453515e-01 4.005600e-16 3 
   25.331381 8.572616e-01 4.007900e-16 3 
   25.500731 8.595498e-01 3.965400e-16 3 
   25.670089 8.750902e-01 3.984000e-16 3 
   25.839439 8.924165e-01 4.009800e-16 3 
   26.008789 9.136906e-01 4.052100e-16 3 
   26.178150 9.328243e-01 4.083600e-16 3 
   26.347500 9.341725e-01 4.037100e-16 3 
   26.516850 9.607985e-01 4.099300e-16 3 
   26.686209 1.015626e+00 4.278400e-16 3 
   26.855559 1.025023e+00 4.263700e-16 3 
   27.024919 1.024457e+00 4.208100e-16 3 
   27.194269 1.024888e+00 4.157600e-16 3 
   27.363622 1.034772e+00 4.145900e-16 3 
   27.532981 1.053534e+00 4.169300e-16 3 
   27.702328 1.076842e+00 4.209600e-16 3 
   27.871678 1.092094e+00 4.217500e-16 3 
   28.041041 1.104725e+00 4.214900e-16 3 
   28.210391 1.124184e+00 4.237800e-16 3 
   28.379750 1.141937e+00 4.253500e-16 3 
   28.549100 1.170685e+00 4.309000e-16 3 
   28.718450 1.186237e+00 4.314900e-16 3 
   28.887809 1.191674e+00 4.284000e-16 3 
   29.057159 1.216635e+00 4.322900e-16 3 
   29.226509 1.228067e+00 4.313100e-16 3 
   29.395869 1.253719e+00 4.352600e-16 3 
   29.565219 1.272518e+00 4.367400e-16 3 
   29.734578 1.290616e+00 4.379200e-16 3 
   29.903931 1.301633e+00 4.366700e-16 3 
   30.073281 1.307283e+00 4.336400e-16 3 
   30.242641 1.339762e+00 4.394500e-16 3 
   30.411991 1.369545e+00 4.442300e-16 3 
   30.581341 1.383437e+00 4.437800e-16 3 
   30.750700 1.408259e+00 4.467800e-16 3 
   30.920050 1.423398e+00 4.466500e-16 3 
   31.089409 1.438390e+00 4.464500e-16 3 
   31.258759 1.456904e+00 4.473100e-16 3 
   31.428109 1.481721e+00 4.500400e-16 3 
   31.597469 1.537669e+00 4.620400e-16 3 
   31.766822 1.526412e+00 4.537800e-16 3 
   31.936172 1.545925e+00 4.547200e-16 3 
   32.105531 1.568996e+00 4.566500e-16 3 
   32.274878 1.632259e+00 4.700900e-16 3 
   32.444241 1.682452e+00 4.795000e-16 3 
   32.613591 1.685773e+00 4.754700e-16 3 
   32.782941 1.694477e+00 4.730000e-16 3 
   32.952300 1.709750e+00 4.723700e-16 3 
   33.121650 1.778491e+00 4.863500e-16 3 
   33.291000 1.868246e+00 5.057100e-16 3 
   33.460363 1.930930e+00 5.174000e-16 3 
   33.629713 1.909169e+00 5.064300e-16 3 
   33.799069 2.008870e+00 5.275500e-16 3 
   33.968419 2.176629e+00 5.659200e-16 3 
   34.137772 2.048868e+00 5.274300e-16 3 
   34.307128 2.268588e+00 5.782400e-16 3 
   34.476478 2.717440e+00 6.858600e-16 3 
   34.645828 2.627490e+00 6.566900e-16 3 
   34.815191 2.349449e+00 5.815000e-16 3 
   34.984538 2.248011e+00 5.510200e-16 3 
