# NGC 4551
# 
# An Atlas of Galaxy Spectral Energy Distributions from the Ultraviolet to the Mid-Infrared
# Brown et al. (2014)
# http://dx.doi.org/10.5072/03/529D3551F0117
# http://dx.doi.org/10.17909/t9-5bxk-dh29
# 
# The Spectral Energy Distributions of Active Galactic Nuclei
# Brown et al. (2019)
# http://dx.doi.org/10.17909/t9-3dbt-8734
# 
# Column 1: Observed wavelength (um)
# Column 2: f_nu (Jy)
# Column 3: f_lam (erg/s/cm2/A)
# Column 4: Source (0 = model, 1 = Optical Spectrun, 2 = Akari, 3 = Spitzer IRS)
# 
    0.010046 1.207129e-10 3.588300e-19 0 
    0.010233 1.654905e-10 4.741200e-19 0 
    0.010447 2.088099e-10 5.739700e-19 0 
    0.010641 2.665229e-10 7.061400e-19 0 
    0.010839 3.481362e-10 8.889800e-19 0 
    0.011041 5.090698e-10 1.252800e-18 0 
    0.011455 7.722560e-10 1.765600e-18 0 
    0.011858 1.098462e-09 2.343600e-18 0 
    0.012134 4.176144e-09 8.509200e-18 0 
    0.012560 5.517695e-09 1.049300e-17 0 
    0.012735 6.120141e-09 1.132100e-17 0 
    0.012853 6.588161e-09 1.196400e-17 0 
    0.013152 7.581500e-09 1.314900e-17 0 
    0.013243 9.072838e-09 1.552000e-17 0 
    0.013459 9.949069e-09 1.647700e-17 0 
    0.013740 1.302383e-08 2.069600e-17 0 
    0.014060 1.481639e-08 2.248500e-17 0 
    0.014355 4.372996e-08 6.366400e-17 0 
    0.014757 1.176969e-07 1.621400e-16 0 
    0.015171 1.320654e-07 1.721400e-16 0 
    0.015560 1.488676e-07 1.844600e-16 0 
    0.015959 1.685706e-07 1.985600e-16 0 
    0.016255 1.835483e-07 2.084000e-16 0 
    0.016672 2.092913e-07 2.258900e-16 0 
    0.017061 2.316203e-07 2.387200e-16 0 
    0.017378 2.522160e-07 2.505500e-16 0 
    0.017783 2.784661e-07 2.641700e-16 0 
    0.018072 2.990759e-07 2.747200e-16 0 
    0.018281 3.153352e-07 2.830700e-16 0 
    0.018664 3.449659e-07 2.970900e-16 0 
    0.019187 3.879592e-07 3.161500e-16 0 
    0.019454 4.157110e-07 3.295300e-16 0 
    0.019861 4.516165e-07 3.434700e-16 0 
    0.020277 4.940596e-07 3.604900e-16 0 
    0.020559 5.245365e-07 3.723000e-16 0 
    0.021086 5.543218e-07 3.740200e-16 0 
    0.021677 6.482948e-07 4.139000e-16 0 
    0.022080 7.010792e-07 4.314100e-16 0 
    0.022387 7.324211e-07 4.384200e-16 0 
    0.022803 7.938833e-07 4.580300e-16 0 
    0.023067 1.235239e-06 6.964500e-16 0 
    0.023496 2.191502e-06 1.190900e-15 0 
    0.024099 2.803918e-06 1.448400e-15 0 
    0.024717 2.771790e-06 1.361100e-15 0 
    0.025293 3.046209e-06 1.428500e-15 0 
    0.025823 2.665531e-06 1.199200e-15 0 
    0.026122 3.117243e-06 1.370500e-15 0 
    0.026485 3.340096e-06 1.428500e-15 0 
    0.026977 3.433564e-06 1.415400e-15 0 
    0.027479 3.513711e-06 1.396000e-15 0 
    0.027990 3.612181e-06 1.383200e-15 0 
    0.028510 3.713233e-06 1.370500e-15 0 
    0.029107 3.645577e-06 1.290900e-15 0 
    0.029717 3.826179e-06 1.299800e-15 0 
    0.030200 3.870698e-06 1.273200e-15 0 
    0.030903 4.043769e-06 1.270300e-15 0 
    0.031915 4.302767e-06 1.267300e-15 0 
    0.032961 4.485134e-06 1.238500e-15 0 
    0.033963 4.621631e-06 1.202000e-15 0 
    0.034914 4.718294e-06 1.161200e-15 0 
    0.035810 4.839184e-06 1.132100e-15 0 
    0.036728 4.986154e-06 1.108900e-15 0 
    0.037670 5.090530e-06 1.076200e-15 0 
    0.038637 5.032288e-06 1.011300e-15 0 
    0.039628 5.281706e-06 1.009000e-15 0 
    0.040644 5.417025e-06 9.837601e-16 0 
    0.041591 5.505125e-06 9.547500e-16 0 
    0.042364 5.517772e-06 9.223400e-16 0 
    0.043152 5.568905e-06 8.972000e-16 0 
    0.044259 5.672464e-06 8.687400e-16 0 
    0.045290 5.711795e-06 8.353900e-16 0 
    0.046132 5.724967e-06 8.070300e-16 0 
    0.047206 5.791108e-06 7.796300e-16 0 
    0.048195 5.871855e-06 7.583900e-16 0 
    0.049204 5.858256e-06 7.259200e-16 0 
    0.050234 5.967129e-06 7.094000e-16 0 
    0.050816 5.939814e-06 6.900700e-16 0 
    0.051404 6.134264e-06 6.964500e-16 0 
    0.052240 6.176950e-06 6.790300e-16 0 
    0.053211 6.148502e-06 6.514600e-16 0 
    0.054200 6.064170e-06 6.192900e-16 0 
    0.055208 6.064250e-06 5.968900e-16 0 
    0.056234 6.205415e-06 5.887000e-16 0 
    0.057280 6.335389e-06 5.792800e-16 0 
    0.058210 6.262787e-06 5.544900e-16 0 
    0.059293 6.349985e-06 5.418600e-16 0 
    0.060256 6.234059e-06 5.151000e-16 0 
    0.061235 5.620463e-06 4.496700e-16 0 
    0.062230 6.394005e-06 4.953300e-16 0 
    0.063241 6.335354e-06 4.752200e-16 0 
    0.064269 6.438355e-06 4.676200e-16 0 
    0.065313 6.408635e-06 4.507000e-16 0 
    0.066069 6.335234e-06 4.354000e-16 0 
    0.066834 6.453014e-06 4.334000e-16 0 
    0.067764 6.482929e-06 4.235400e-16 0 
    0.068707 6.306319e-06 4.007700e-16 0 
    0.069823 6.497734e-06 3.998400e-16 0 
    0.070795 6.291813e-06 3.766100e-16 0 
    0.071945 6.527904e-06 3.783500e-16 0 
    0.072946 6.542848e-06 3.688800e-16 0 
    0.073790 6.557915e-06 3.613200e-16 0 
    0.074817 6.512788e-06 3.490500e-16 0 
    0.075858 6.512872e-06 3.395400e-16 0 
    0.076736 5.994797e-06 3.054200e-16 0 
    0.077804 6.512920e-06 3.227700e-16 0 
    0.078886 6.393926e-06 3.082400e-16 0 
    0.079799 6.482926e-06 3.054200e-16 0 
    0.080724 6.512889e-06 2.998400e-16 0 
    0.081846 6.542910e-06 2.930200e-16 0 
    0.082794 6.573112e-06 2.876700e-16 0 
    0.083753 6.176792e-06 2.641700e-16 0 
    0.084918 6.573128e-06 2.734600e-16 0 
    0.085901 6.542944e-06 2.660100e-16 0 
    0.086896 6.573071e-06 2.611500e-16 0 
    0.087902 6.618487e-06 2.569700e-16 0 
    0.088920 6.633777e-06 2.517000e-16 0 
    0.089950 6.664559e-06 2.471100e-16 0 
    0.090782 6.603537e-06 2.403800e-16 0 
    0.091833 7.581818e-06 2.697100e-16 0 
    0.092897 1.261167e-05 4.384200e-16 0 
    0.093972 1.844034e-05 6.264600e-16 0 
    0.094842 2.493265e-05 8.315500e-16 0 
    0.095940 3.011400e-05 9.815000e-16 0 
    0.096828 3.309609e-05 1.059000e-15 0 
    0.097949 1.584066e-05 4.953300e-16 0 
    0.098855 2.997558e-05 9.202200e-16 0 
    0.100000 3.039267e-05 9.117800e-16 0 
    0.100925 3.843802e-05 1.132100e-15 0 
    0.101859 3.852679e-05 1.114000e-15 0 
    0.102802 2.284398e-05 6.484700e-16 0 
    0.103992 3.340188e-05 9.266000e-16 0 
    0.104954 4.940381e-05 1.345500e-15 0 
    0.105925 4.895332e-05 1.308900e-15 0 
    0.106905 4.195468e-05 1.101300e-15 0 
    0.107895 4.772946e-05 1.230000e-15 0 
    0.108893 3.979044e-05 1.006700e-15 0 
    0.109901 5.055545e-05 1.255700e-15 0 
    0.110918 4.940396e-05 1.204700e-15 0 
    0.111944 4.872648e-05 1.166500e-15 0 
    0.112980 4.474802e-05 1.051700e-15 0 
    0.114025 5.392239e-05 1.244200e-15 0 
    0.114815 5.113925e-05 1.163800e-15 0 
    0.115878 5.330354e-05 1.190900e-15 0 
    0.116950 5.442199e-05 1.193700e-15 0 
    0.118032 4.043587e-05 8.707400e-16 0 
    0.118850 5.379865e-05 1.142600e-15 0 
    0.119950 4.382970e-05 9.138800e-16 0 
    0.121060 3.670866e-05 7.514300e-16 0 
    0.121899 2.702522e-05 5.456200e-16 0 
    0.123027 4.485095e-05 8.889800e-16 0 
    0.123880 5.817765e-05 1.137300e-15 0 
    0.125026 6.233843e-05 1.196400e-15 0 
    0.125893 6.106110e-05 1.155800e-15 0 
    0.127057 5.685734e-05 1.056600e-15 0 
    0.127938 6.772587e-05 1.241300e-15 0 
    0.129122 7.075805e-05 1.273200e-15 0 
    0.130017 5.980784e-05 1.061400e-15 0 
    0.130918 6.036540e-05 1.056600e-15 0 
    0.132130 7.190507e-05 1.235600e-15 0 
    0.133045 6.978313e-05 1.182700e-15 0 
    0.133968 6.453296e-05 1.078700e-15 0 
    0.134896 7.358232e-05 1.213100e-15 0 
    0.136144 7.273825e-05 1.177300e-15 0 
    0.137088 6.726057e-05 1.073700e-15 0 
    0.138038 6.978389e-05 1.098700e-15 0 
    0.138995 7.043285e-05 1.093700e-15 0 
    0.139959 5.953474e-05 9.117800e-16 0 
    0.140929 6.050186e-05 9.138800e-16 0 
    0.141906 6.819837e-05 1.016000e-15 0 
    0.143219 6.930897e-05 1.013700e-15 0 
    0.144212 7.075867e-05 1.020700e-15 0 
    0.144877 7.358165e-05 1.051700e-15 0 
    0.145211 7.443441e-05 1.059000e-15 0 
    0.146218 7.307583e-05 1.025400e-15 0 
    0.147231 6.930561e-05 9.591600e-16 0 
    0.147911 6.994727e-05 9.591600e-16 0 
    0.148936 7.157592e-05 9.680300e-16 0 
    0.149969 7.257224e-05 9.680300e-16 0 
    0.151008 6.978605e-05 9.181000e-16 0 
    0.151705 6.423475e-05 8.373200e-16 0 
    0.152405 6.788407e-05 8.767800e-16 0 
    0.153109 6.695295e-05 8.568200e-16 0 
    0.154170 5.939799e-05 7.497100e-16 0 
    0.155239 6.064149e-05 7.549000e-16 0 
    0.155955 5.912426e-05 7.292700e-16 0 
    0.157036 6.291665e-05 7.654000e-16 0 
    0.158125 6.741698e-05 8.088900e-16 0 
    0.159221 7.026965e-05 8.315500e-16 0 
    0.159956 7.174123e-05 8.411800e-16 0 
    0.161065 7.092093e-05 8.201500e-16 0 
    0.162181 7.141177e-05 8.145000e-16 0 
    0.163305 6.962529e-05 7.832300e-16 0 
    0.164059 7.375166e-05 8.220400e-16 0 
    0.165196 7.512223e-05 8.258300e-16 0 
    0.165959 7.174150e-05 7.814300e-16 0 
    0.167109 7.704902e-05 8.277300e-16 0 
    0.167880 7.059358e-05 7.514300e-16 0 
    0.168267 7.957307e-05 8.431200e-16 0 
    0.169044 8.180319e-05 8.588000e-16 0 
    0.170216 7.848242e-05 8.126300e-16 0 
    0.171002 7.669607e-05 7.868500e-16 0 
    0.172187 7.409225e-05 7.497100e-16 0 
    0.172982 7.409177e-05 7.428300e-16 0 
    0.174181 7.939115e-05 7.850400e-16 0 
    0.174985 7.848250e-05 7.689400e-16 0 
    0.176198 8.370861e-05 8.088900e-16 0 
    0.177011 7.866332e-05 7.531700e-16 0 
    0.178238 8.049575e-05 7.601400e-16 0 
    0.179061 8.313253e-05 7.778400e-16 0 
    0.180302 8.928328e-05 8.239300e-16 0 
    0.181134 8.887335e-05 8.126300e-16 0 
    0.182390 8.332385e-05 7.514300e-16 0 
    0.183231 8.605362e-05 7.689400e-16 0 
    0.184077 8.409416e-05 7.445400e-16 0 
    0.185353 7.776191e-05 6.790300e-16 0 
    0.186209 8.086737e-05 6.996700e-16 0 
    0.187068 8.506798e-05 7.292700e-16 0 
    0.188365 9.073415e-05 7.671700e-16 0 
    0.189234 8.565754e-05 7.176100e-16 0 
    0.190108 8.605425e-05 7.143200e-16 0 
    0.191426 9.052512e-05 7.411200e-16 0 
    0.192309 8.907788e-05 7.225900e-16 0 
    0.193197 8.585639e-05 6.900700e-16 0 
    0.194089 8.428909e-05 6.712600e-16 0 
    0.195434 9.744676e-05 7.654000e-16 0 
    0.196336 9.327546e-05 7.259200e-16 0 
    0.197242 1.048980e-04 8.088900e-16 0 
    0.198153 1.046572e-04 7.996300e-16 0 
    0.199067 1.070951e-04 8.107600e-16 0 
    0.200447 1.078378e-04 8.051800e-16 0 
    0.201372 1.090854e-04 8.070300e-16 0 
    0.202302 1.090858e-04 7.996300e-16 0 
    0.203236 1.068488e-04 7.760500e-16 0 
    0.204174 1.131803e-04 8.145000e-16 0 
    0.205116 1.215533e-04 8.667400e-16 0 
    0.206538 1.152845e-04 8.107600e-16 0 
    0.207491 1.160825e-04 8.088900e-16 0 
    0.208449 1.287569e-04 8.889800e-16 0 
    0.209411 2.332247e-04 1.595500e-15 0 
    0.210378 2.176506e-04 1.475300e-15 0 
    0.211349 2.131874e-04 1.431800e-15 0 
    0.212324 2.359264e-04 1.570000e-15 0 
    0.213304 2.166492e-04 1.428500e-15 0 
    0.214289 2.068992e-04 1.351700e-15 0 
    0.215278 2.551271e-04 1.651500e-15 0 
    0.216272 2.586891e-04 1.659200e-15 0 
    0.217270 2.305553e-04 1.465200e-15 0 
    0.218273 2.353728e-04 1.482100e-15 0 
    0.219281 2.889217e-04 1.802600e-15 0 
    0.220293 2.875829e-04 1.777800e-15 0 
    0.221309 2.829930e-04 1.733400e-15 0 
    0.222331 2.258176e-04 1.370500e-15 0 
    0.223357 2.598851e-04 1.562800e-15 0 
    0.224388 3.402315e-04 2.027200e-15 0 
    0.225424 3.271702e-04 1.931500e-15 0 
    0.226464 2.569084e-04 1.502800e-15 0 
    0.227510 2.436554e-04 1.412200e-15 0 
    0.228560 2.708801e-04 1.555600e-15 0 
    0.229615 3.612232e-04 2.055400e-15 0 
    0.230144 3.011308e-04 1.705600e-15 0 
    0.231207 3.687264e-04 2.069300e-15 0 
    0.232274 3.116402e-04 1.732900e-15 0 
    0.233346 2.509617e-04 1.382700e-15 0 
    0.234423 2.299098e-04 1.255100e-15 0 
    0.235505 1.692386e-04 9.154200e-16 0 
    0.236592 2.967835e-04 1.590600e-15 0 
    0.237684 1.876683e-04 9.965800e-16 0 
    0.238232 2.346231e-04 1.240200e-15 0 
    0.239332 1.575099e-04 8.249500e-16 0 
    0.240436 1.906576e-04 9.894100e-16 0 
    0.241546 1.915138e-04 9.847400e-16 0 
    0.242661 2.244672e-04 1.143600e-15 0 
    0.243220 3.707699e-04 1.880300e-15 0 
    0.244343 3.802516e-04 1.910700e-15 0 
    0.245471 4.560376e-04 2.270500e-15 0 
    0.246604 4.919815e-04 2.427000e-15 0 
    0.247742 4.196488e-04 2.051200e-15 0 
    0.248313 3.765947e-04 1.832300e-15 0 
    0.249460 2.381346e-04 1.148000e-15 0 
    0.250611 2.902260e-04 1.386300e-15 0 
    0.251768 4.588805e-04 2.171800e-15 0 
    0.252348 2.087669e-04 9.835200e-16 0 
    0.252930 1.756459e-04 8.236800e-16 0 
    0.253513 1.916925e-04 8.948000e-16 0 
    0.254683 3.087067e-04 1.427800e-15 0 
    0.255270 3.300060e-04 1.519300e-15 0 
    0.256448 6.186787e-04 2.822200e-15 0 
    0.257632 4.533140e-04 2.048900e-15 0 
    0.258226 5.866343e-04 2.639300e-15 0 
    0.259418 5.179903e-04 2.309100e-15 0 
    0.260615 4.658645e-04 2.057700e-15 0 
    0.261818 4.038202e-04 1.767300e-15 0 
    0.262422 3.674194e-04 1.600600e-15 0 
    0.263633 5.094523e-04 2.199000e-15 0 
    0.264241 9.269975e-04 3.982900e-15 0 
    0.265461 1.279422e-03 5.446700e-15 0 
    0.266686 1.827892e-03 7.710300e-15 0 
    0.267301 1.116666e-03 4.688600e-15 0 
    0.268534 1.299744e-03 5.407300e-15 0 
    0.269774 1.530376e-03 6.308400e-15 0 
    0.270396 1.111138e-03 4.559200e-15 0 
    0.271644 1.408340e-03 5.725700e-15 0 
    0.272270 1.003857e-03 4.062500e-15 0 
    0.273527 7.954545e-04 3.189600e-15 0 
    0.274789 1.031679e-03 4.098900e-15 0 
    0.275423 5.591480e-04 2.211300e-15 0 
    0.276694 7.806524e-04 3.059000e-15 0 
    0.277332 1.045735e-03 4.078900e-15 0 
    0.278612 1.128145e-03 4.360000e-15 0 
    0.279898 6.626763e-04 2.537600e-15 0 
    0.280543 3.070782e-04 1.170500e-15 0 
    0.281838 3.725656e-04 1.407100e-15 0 
    0.282488 1.014304e-03 3.813200e-15 0 
    0.283792 1.556341e-03 5.797300e-15 0 
    0.284446 1.499928e-03 5.561500e-15 0 
    0.285759 1.086435e-03 3.991400e-15 0 
    0.286418 6.137331e-04 2.244400e-15 0 
    0.287740 1.577287e-03 5.715200e-15 0 
    0.288403 2.167075e-03 7.816200e-15 0 
    0.289734 1.935566e-03 6.917200e-15 0 
    0.290402 2.403106e-03 8.548600e-15 0 
    0.292415 3.316513e-03 1.163600e-14 0 
    0.294442 2.907787e-03 1.006200e-14 0 
    0.296483 2.731941e-03 9.323800e-15 0 
    0.297852 2.926883e-03 9.897500e-15 0 
    0.299916 3.008215e-03 1.003300e-14 0 
    0.301995 3.098705e-03 1.019300e-14 0 
    0.304089 3.342794e-03 1.084500e-14 0 
    0.306196 3.539914e-03 1.132700e-14 0 
    0.308319 3.907308e-03 1.233100e-14 0 
    0.310456 3.888409e-03 1.210300e-14 0 
    0.311889 4.536245e-03 1.399000e-14 0 
    0.314051 4.271580e-03 1.299300e-14 0 
    0.316228 4.310007e-03 1.293000e-14 0 
    0.318420 4.823522e-03 1.427200e-14 0 
    0.319890 4.171637e-03 1.223000e-14 0 
    0.322107 4.733555e-03 1.368700e-14 0 
    0.324340 3.981685e-03 1.135500e-14 0 
    0.326588 5.740781e-03 1.614700e-14 0 
    0.328095 6.790330e-03 1.892400e-14 0 
    0.330370 6.726565e-03 1.848900e-14 0 
    0.332660 6.422124e-03 1.741000e-14 0 
    0.333426 6.132297e-03 1.654800e-14 0 
    0.334195 6.864239e-03 1.843800e-14 0 
    0.334966 6.911282e-03 1.847900e-14 0 
    0.335738 6.479145e-03 1.724400e-14 0 
    0.336512 6.004380e-03 1.590700e-14 0 
    0.337287 7.201547e-03 1.899100e-14 0 
    0.338065 6.892705e-03 1.809300e-14 0 
    0.338844 4.981451e-03 1.301600e-14 0 
    0.339625 5.486968e-03 1.427100e-14 0 
    0.340408 7.182481e-03 1.859500e-14 0 
    0.341193 6.922285e-03 1.783900e-14 0 
    0.341979 7.181098e-03 1.842100e-14 0 
    0.342768 7.065842e-03 1.804200e-14 0 
    0.343558 8.000609e-03 2.033500e-14 0 
    0.344350 7.346631e-03 1.858700e-14 0 
    0.345144 7.586635e-03 1.910600e-14 0 
    0.345939 4.666480e-03 1.169800e-14 0 
    0.346737 7.833562e-03 1.954700e-14 0 
    0.347536 6.352290e-03 1.577800e-14 0 
    0.348337 6.948257e-03 1.717900e-14 0 
    0.349140 6.051053e-03 1.489200e-14 0 
    0.349945 6.947241e-03 1.701900e-14 0 
    0.350752 6.191127e-03 1.509700e-14 0 
    0.351560 7.189900e-03 1.745200e-14 0 
    0.352371 8.010732e-03 1.935500e-14 0 
    0.353183 7.073489e-03 1.701200e-14 0 
    0.353997 6.332946e-03 1.516100e-14 0 
    0.354813 7.971917e-03 1.899700e-14 0 
    0.355631 9.194195e-03 2.180900e-14 0 
    0.356451 8.901635e-03 2.101800e-14 0 
    0.357273 8.249631e-03 1.938900e-14 0 
    0.358096 8.577915e-03 2.006800e-14 0 
    0.358922 6.673564e-03 1.554100e-14 0 
    0.359749 5.461496e-03 1.266000e-14 0 
    0.360579 5.771031e-03 1.331600e-14 0 
    0.361410 9.230717e-03 2.120100e-14 0 
    0.362243 7.588889e-03 1.735000e-14 0 
    0.363078 8.243936e-03 1.876100e-14 0 
    0.363915 8.186636e-03 1.854500e-14 0 
    0.364754 8.473223e-03 1.910600e-14 0 
    0.365595 1.025705e-02 2.302200e-14 0 
    0.366437 8.452232e-03 1.888400e-14 0 
    0.367282 1.129620e-02 2.512200e-14 0 
    0.368129 1.126931e-02 2.494700e-14 0 
    0.368978 1.163720e-02 2.564300e-14 0 
    0.369828 9.414524e-03 2.065000e-14 0 
    0.370681 1.008686e-02 2.202300e-14 0 
    0.371535 1.139506e-02 2.476500e-14 0 
    0.372392 7.955831e-03 1.721100e-14 0 
    0.373250 1.260759e-02 2.714900e-14 0 
    0.374111 8.681193e-03 1.860800e-14 0 
    0.374973 9.279913e-03 1.980000e-14 0 
    0.375837 1.031574e-02 2.190900e-14 0 
    0.376704 6.101954e-03 1.290000e-14 0 
    0.377572 9.428008e-03 1.984000e-14 0 
    0.378443 9.106825e-03 1.907600e-14 0 
    0.379315 1.146387e-02 2.390300e-14 0 
    0.380189 1.313035e-02 2.725200e-14 0 
    0.381066 9.959559e-03 2.057600e-14 0 
    0.381944 1.028462e-02 2.115000e-14 0 
    0.382825 1.188903e-02 2.433700e-14 0 
    0.383707 9.038515e-03 1.841700e-14 0 
    0.384592 6.761998e-03 1.371500e-14 0 
    0.385478 6.622307e-03 1.337000e-14 0 
    0.386367 1.035104e-02 2.080200e-14 0 
    0.387258 1.018438e-02 2.037300e-14 0 
    0.388150 1.058992e-02 2.108700e-14 0 
    0.389045 8.567254e-03 1.698100e-14 0 
    0.389942 9.567286e-03 1.887600e-14 0 
    0.390007 1.070822e-02 2.112000e-14 1 
    0.390185 7.832465e-03 1.543400e-14 1 
    0.390363 8.960644e-03 1.764100e-14 1 
    0.390540 1.090834e-02 2.145600e-14 1 
    0.390718 1.250493e-02 2.457400e-14 1 
    0.390895 1.256465e-02 2.466900e-14 1 
    0.391073 1.229520e-02 2.411800e-14 1 
    0.391251 1.296361e-02 2.540600e-14 1 
    0.391428 1.538696e-02 3.012800e-14 1 
    0.391606 1.397731e-02 2.734300e-14 1 
    0.391784 1.062900e-02 2.077400e-14 1 
    0.391961 1.026476e-02 2.004400e-14 1 
    0.392139 1.049706e-02 2.047900e-14 1 
    0.392317 1.351968e-02 2.635200e-14 1 
    0.392494 1.433552e-02 2.791700e-14 1 
    0.392672 1.405299e-02 2.734200e-14 1 
    0.392849 1.352911e-02 2.629900e-14 1 
    0.393027 1.252702e-02 2.432900e-14 1 
    0.393205 1.147208e-02 2.226000e-14 1 
    0.393382 1.186412e-02 2.300000e-14 1 
    0.393560 1.270507e-02 2.460800e-14 1 
    0.393738 1.245766e-02 2.410700e-14 1 
    0.393915 1.105010e-02 2.136400e-14 1 
    0.394093 9.407600e-03 1.817200e-14 1 
    0.394271 9.271533e-03 1.789300e-14 1 
    0.394448 7.532074e-03 1.452300e-14 1 
    0.394626 5.401224e-03 1.040500e-14 1 
    0.394804 4.599106e-03 8.851800e-15 1 
    0.394981 5.608039e-03 1.078400e-14 1 
    0.395159 6.719683e-03 1.291000e-14 1 
    0.395336 7.392543e-03 1.419000e-14 1 
    0.395514 8.257487e-03 1.583600e-14 1 
    0.395692 1.052582e-02 2.016800e-14 1 
    0.395869 1.144783e-02 2.191500e-14 1 
    0.396047 1.178961e-02 2.254900e-14 1 
    0.396225 1.157414e-02 2.211700e-14 1 
    0.396402 1.189142e-02 2.270300e-14 1 
    0.396580 1.251862e-02 2.387900e-14 1 
    0.396758 1.184195e-02 2.256800e-14 1 
    0.396935 1.214505e-02 2.312500e-14 1 
    0.397113 1.124392e-02 2.139000e-14 1 
    0.397290 1.266029e-02 2.406300e-14 1 
    0.397468 1.168373e-02 2.218700e-14 1 
    0.397646 9.739282e-03 1.847800e-14 1 
    0.397823 9.500009e-03 1.800800e-14 1 
    0.398001 8.274010e-03 1.567000e-14 1 
    0.398179 6.587079e-03 1.246400e-14 1 
    0.398356 5.767762e-03 1.090400e-14 1 
    0.398534 6.034457e-03 1.139800e-14 1 
    0.398712 6.092838e-03 1.149800e-14 1 
    0.398889 9.095927e-03 1.715000e-14 1 
    0.399067 1.049487e-02 1.977000e-14 1 
    0.399245 1.270125e-02 2.390500e-14 1 
    0.399422 1.492956e-02 2.807400e-14 1 
    0.399600 1.410402e-02 2.649800e-14 1 
    0.399777 1.426728e-02 2.678100e-14 1 
    0.399955 1.612757e-02 3.024600e-14 1 
    0.400133 1.682078e-02 3.151800e-14 1 
    0.400310 1.636186e-02 3.063100e-14 1 
    0.400488 1.669346e-02 3.122400e-14 1 
    0.400666 1.828313e-02 3.416700e-14 1 
    0.400843 1.706423e-02 3.186100e-14 1 
    0.401021 1.575372e-02 2.938800e-14 1 
    0.401199 1.791384e-02 3.338800e-14 1 
    0.401376 1.886727e-02 3.513400e-14 1 
    0.401554 1.822774e-02 3.391300e-14 1 
    0.401731 1.954837e-02 3.633800e-14 1 
    0.401909 1.838490e-02 3.414500e-14 1 
    0.402087 1.837586e-02 3.409800e-14 1 
    0.402264 1.738015e-02 3.222200e-14 1 
    0.402442 1.755642e-02 3.252000e-14 1 
    0.402620 1.859158e-02 3.440700e-14 1 
    0.402797 1.897947e-02 3.509400e-14 1 
    0.402975 1.908448e-02 3.525700e-14 1 
    0.403153 2.086211e-02 3.850700e-14 1 
    0.403330 2.118138e-02 3.906200e-14 1 
    0.403508 1.951002e-02 3.594800e-14 1 
    0.403685 1.912789e-02 3.521300e-14 1 
    0.403863 1.920239e-02 3.531900e-14 1 
    0.404041 1.890643e-02 3.474400e-14 1 
    0.404218 1.880263e-02 3.452300e-14 1 
    0.404396 1.973390e-02 3.620100e-14 1 
    0.404574 1.906710e-02 3.494700e-14 1 
    0.404751 1.699504e-02 3.112200e-14 1 
    0.404929 1.846766e-02 3.378900e-14 1 
    0.405107 1.982250e-02 3.623600e-14 1 
    0.405284 1.983983e-02 3.623600e-14 1 
    0.405462 2.060144e-02 3.759400e-14 1 
    0.405640 1.890115e-02 3.446100e-14 1 
    0.405817 1.894070e-02 3.450300e-14 1 
    0.405995 1.802162e-02 3.280000e-14 1 
    0.406172 1.595645e-02 2.901600e-14 1 
    0.406350 1.812416e-02 3.292900e-14 1 
    0.406528 2.014085e-02 3.656100e-14 1 
    0.406705 1.920067e-02 3.482400e-14 1 
    0.406883 1.717400e-02 3.112100e-14 1 
    0.407061 1.820531e-02 3.296100e-14 1 
    0.407238 1.895307e-02 3.428500e-14 1 
    0.407416 1.907310e-02 3.447200e-14 1 
    0.407594 1.949237e-02 3.519900e-14 1 
    0.407771 1.785595e-02 3.221600e-14 1 
    0.407949 1.709546e-02 3.081700e-14 1 
    0.408127 1.780997e-02 3.207700e-14 1 
    0.408304 1.855340e-02 3.338700e-14 1 
    0.408482 1.902565e-02 3.420700e-14 1 
    0.408659 1.845875e-02 3.315900e-14 1 
    0.408837 1.810209e-02 3.249000e-14 1 
    0.409015 1.812845e-02 3.250900e-14 1 
    0.409192 1.847735e-02 3.310600e-14 1 
    0.409370 1.895093e-02 3.392500e-14 1 
    0.409548 1.795098e-02 3.210700e-14 1 
    0.409725 1.937440e-02 3.462300e-14 1 
    0.409903 2.146349e-02 3.832300e-14 1 
    0.410081 2.206848e-02 3.936900e-14 1 
    0.410258 2.102100e-02 3.746800e-14 1 
    0.410436 2.114593e-02 3.765800e-14 1 
    0.410613 2.140415e-02 3.808500e-14 1 
    0.410791 2.124159e-02 3.776300e-14 1 
    0.410969 2.073080e-02 3.682300e-14 1 
    0.411146 1.874947e-02 3.327500e-14 1 
    0.411324 1.833372e-02 3.250900e-14 1 
    0.411502 1.804478e-02 3.196900e-14 1 
    0.411679 1.836086e-02 3.250100e-14 1 
    0.411857 1.839935e-02 3.254100e-14 1 
    0.412035 1.836999e-02 3.246100e-14 1 
    0.412212 1.982838e-02 3.500800e-14 1 
    0.412390 1.894473e-02 3.341900e-14 1 
    0.412568 1.952903e-02 3.442000e-14 1 
    0.412745 2.041008e-02 3.594200e-14 1 
    0.412923 1.984455e-02 3.491600e-14 1 
    0.413100 2.060504e-02 3.622300e-14 1 
    0.413278 2.177114e-02 3.824000e-14 1 
    0.413456 2.117279e-02 3.715700e-14 1 
    0.413633 2.023565e-02 3.548200e-14 1 
    0.413811 2.081017e-02 3.645800e-14 1 
    0.413989 2.251053e-02 3.940300e-14 1 
    0.414166 2.150687e-02 3.761400e-14 1 
    0.414344 2.014562e-02 3.520300e-14 1 
    0.414522 1.925281e-02 3.361400e-14 1 
    0.414699 1.874703e-02 3.270300e-14 1 
    0.414877 1.976201e-02 3.444400e-14 1 
    0.415054 1.885436e-02 3.283400e-14 1 
    0.415232 1.993780e-02 3.469100e-14 1 
    0.415410 2.061180e-02 3.583300e-14 1 
    0.415587 2.084065e-02 3.620000e-14 1 
    0.415765 1.939783e-02 3.366500e-14 1 
    0.415943 1.863764e-02 3.231800e-14 1 
    0.416120 2.047337e-02 3.547100e-14 1 
    0.416298 2.032856e-02 3.519000e-14 1 
    0.416476 2.049512e-02 3.544800e-14 1 
    0.416653 1.952244e-02 3.373700e-14 1 
    0.416831 1.967407e-02 3.397000e-14 1 
    0.417008 2.048607e-02 3.534200e-14 1 
    0.417186 1.971224e-02 3.397800e-14 1 
    0.417364 2.005016e-02 3.453100e-14 1 
    0.417541 2.148630e-02 3.697300e-14 1 
    0.417719 2.163142e-02 3.719100e-14 1 
    0.417897 2.299749e-02 3.950600e-14 1 
    0.418074 2.220946e-02 3.812000e-14 1 
    0.418252 2.022595e-02 3.468600e-14 1 
    0.418430 2.058283e-02 3.526800e-14 1 
    0.418607 1.997876e-02 3.420400e-14 1 
    0.418785 1.935387e-02 3.310600e-14 1 
    0.418963 1.958622e-02 3.347500e-14 1 
    0.419140 2.027328e-02 3.462000e-14 1 
    0.419318 2.037432e-02 3.476300e-14 1 
    0.419495 1.959904e-02 3.341200e-14 1 
    0.419673 2.065012e-02 3.517400e-14 1 
    0.419851 2.144266e-02 3.649300e-14 1 
    0.420028 2.036515e-02 3.463000e-14 1 
    0.420206 2.032886e-02 3.453900e-14 1 
    0.420384 2.088214e-02 3.544900e-14 1 
    0.420561 2.126291e-02 3.606500e-14 1 
    0.420739 2.137296e-02 3.622100e-14 1 
    0.420917 2.156999e-02 3.652400e-14 1 
    0.421094 2.086349e-02 3.529800e-14 1 
    0.421272 1.979147e-02 3.345600e-14 1 
    0.421450 1.975432e-02 3.336500e-14 1 
    0.421627 2.055132e-02 3.468200e-14 1 
    0.421805 2.029468e-02 3.422000e-14 1 
    0.421982 1.998525e-02 3.367000e-14 1 
    0.422160 2.183184e-02 3.675000e-14 1 
    0.422338 2.289014e-02 3.849900e-14 1 
    0.422515 2.343180e-02 3.937700e-14 1 
    0.422693 2.296914e-02 3.856700e-14 1 
    0.422871 2.200379e-02 3.691500e-14 1 
    0.423048 2.189872e-02 3.670800e-14 1 
    0.423226 2.134635e-02 3.575200e-14 1 
    0.423404 2.196846e-02 3.676300e-14 1 
    0.423581 2.173325e-02 3.633900e-14 1 
    0.423759 2.140674e-02 3.576300e-14 1 
    0.423936 1.963759e-02 3.278000e-14 1 
    0.424114 1.936869e-02 3.230400e-14 1 
    0.424292 1.784935e-02 2.974500e-14 1 
    0.424469 1.913327e-02 3.185800e-14 1 
    0.424647 2.092132e-02 3.480600e-14 1 
    0.424825 2.086727e-02 3.468700e-14 1 
    0.425002 2.215326e-02 3.679400e-14 1 
    0.425180 2.255989e-02 3.743800e-14 1 
    0.425358 2.256431e-02 3.741400e-14 1 
    0.425535 2.293077e-02 3.799000e-14 1 
    0.425713 2.242076e-02 3.711400e-14 1 
    0.425890 2.379917e-02 3.936300e-14 1 
    0.426068 2.469467e-02 4.081000e-14 1 
    0.426246 2.455784e-02 4.055000e-14 1 
    0.426423 2.301384e-02 3.796900e-14 1 
    0.426601 2.112946e-02 3.483100e-14 1 
    0.426779 2.136567e-02 3.519100e-14 1 
    0.426956 2.200075e-02 3.620700e-14 1 
    0.427134 2.256156e-02 3.709900e-14 1 
    0.427312 2.232170e-02 3.667400e-14 1 
    0.427489 2.162322e-02 3.549700e-14 1 
    0.427667 2.164976e-02 3.551100e-14 1 
    0.427845 2.356481e-02 3.862000e-14 1 
    0.428022 2.358370e-02 3.861900e-14 1 
    0.428200 2.314493e-02 3.786900e-14 1 
    0.428377 2.343566e-02 3.831300e-14 1 
    0.428555 2.233849e-02 3.648900e-14 1 
    0.428733 1.924266e-02 3.140600e-14 1 
    0.428910 1.916412e-02 3.125200e-14 1 
    0.429088 2.079166e-02 3.387800e-14 1 
    0.429266 2.279964e-02 3.711900e-14 1 
    0.429443 2.307910e-02 3.754300e-14 1 
    0.429621 2.053634e-02 3.337900e-14 1 
    0.429799 2.181751e-02 3.543200e-14 1 
    0.429976 2.330651e-02 3.781900e-14 1 
    0.430154 2.310254e-02 3.745700e-14 1 
    0.430332 2.252906e-02 3.649700e-14 1 
    0.430509 2.093207e-02 3.388200e-14 1 
    0.430687 2.122268e-02 3.432400e-14 1 
    0.430864 2.077354e-02 3.357000e-14 1 
    0.431042 2.100252e-02 3.391200e-14 1 
    0.431220 2.019239e-02 3.257700e-14 1 
    0.431397 1.914011e-02 3.085400e-14 1 
    0.431575 1.833452e-02 2.953100e-14 1 
    0.431753 1.710193e-02 2.752300e-14 1 
    0.431930 1.640888e-02 2.638600e-14 1 
    0.432108 1.738401e-02 2.793100e-14 1 
    0.432286 1.663278e-02 2.670200e-14 1 
    0.432463 1.636711e-02 2.625400e-14 1 
    0.432641 1.723163e-02 2.761800e-14 1 
    0.432819 1.917346e-02 3.070500e-14 1 
    0.432996 2.286574e-02 3.658800e-14 1 
    0.433174 2.509118e-02 4.011600e-14 1 
    0.433351 2.774079e-02 4.431600e-14 1 
    0.433529 2.989115e-02 4.771200e-14 1 
    0.433707 2.809300e-02 4.480500e-14 1 
    0.433884 2.469471e-02 3.935300e-14 1 
    0.434062 2.460004e-02 3.917000e-14 1 
    0.434240 2.491878e-02 3.964500e-14 1 
    0.434417 2.444214e-02 3.885500e-14 1 
    0.434595 2.646108e-02 4.203000e-14 1 
    0.434773 2.877504e-02 4.566800e-14 1 
    0.434950 2.889432e-02 4.582000e-14 1 
    0.435128 2.719564e-02 4.309100e-14 1 
    0.435305 2.589892e-02 4.100300e-14 1 
    0.435483 2.461155e-02 3.893300e-14 1 
    0.435661 2.342138e-02 3.702000e-14 1 
    0.435838 2.279710e-02 3.600400e-14 1 
    0.436016 2.497918e-02 3.941800e-14 1 
    0.436194 2.682866e-02 4.230200e-14 1 
    0.436371 2.877812e-02 4.533900e-14 1 
    0.436549 2.979450e-02 4.690200e-14 1 
    0.436727 2.801004e-02 4.405700e-14 1 
    0.436904 2.684544e-02 4.219100e-14 1 
    0.437082 2.750476e-02 4.319200e-14 1 
    0.437259 2.750027e-02 4.315000e-14 1 
    0.437437 2.805527e-02 4.398500e-14 1 
    0.437615 2.911607e-02 4.561100e-14 1 
    0.437792 2.906807e-02 4.549900e-14 1 
    0.437970 3.013137e-02 4.712500e-14 1 
    0.438148 3.082329e-02 4.816800e-14 1 
    0.438325 3.010146e-02 4.700200e-14 1 
    0.438503 2.963238e-02 4.623200e-14 1 
    0.438681 2.872760e-02 4.478400e-14 1 
    0.438858 2.719268e-02 4.235700e-14 1 
    0.439036 2.697187e-02 4.197900e-14 1 
    0.439214 2.668188e-02 4.149400e-14 1 
    0.439391 2.652642e-02 4.121900e-14 1 
    0.439569 2.621814e-02 4.070700e-14 1 
    0.439746 2.469934e-02 3.831800e-14 1 
    0.439924 2.418003e-02 3.748200e-14 1 
    0.440102 2.376186e-02 3.680400e-14 1 
    0.440279 2.346759e-02 3.631900e-14 1 
    0.440457 2.418627e-02 3.740100e-14 1 
    0.440635 2.545039e-02 3.932400e-14 1 
    0.440812 2.690942e-02 4.154500e-14 1 
    0.440990 2.762866e-02 4.262100e-14 1 
    0.441168 2.840678e-02 4.378600e-14 1 
    0.441345 2.899836e-02 4.466200e-14 1 
    0.441523 2.909193e-02 4.477000e-14 1 
    0.441700 2.802530e-02 4.309400e-14 1 
    0.441878 2.693428e-02 4.138300e-14 1 
    0.442056 2.640037e-02 4.053000e-14 1 
    0.442233 2.562619e-02 3.931000e-14 1 
    0.442411 2.636580e-02 4.041200e-14 1 
    0.442589 2.842096e-02 4.352700e-14 1 
    0.442766 3.017409e-02 4.617500e-14 1 
    0.442944 2.977391e-02 4.552600e-14 1 
    0.443122 2.963356e-02 4.527500e-14 1 
    0.443299 3.023041e-02 4.615000e-14 1 
    0.443477 3.032614e-02 4.625900e-14 1 
    0.443655 3.032753e-02 4.622400e-14 1 
    0.443832 3.019414e-02 4.598400e-14 1 
    0.444010 3.038397e-02 4.623600e-14 1 
    0.444187 3.041478e-02 4.624600e-14 1 
    0.444365 3.039111e-02 4.617300e-14 1 
    0.444543 3.043720e-02 4.620600e-14 1 
    0.444720 3.076470e-02 4.666600e-14 1 
    0.444898 3.010711e-02 4.563200e-14 1 
    0.445076 2.959834e-02 4.482500e-14 1 
    0.445253 3.103607e-02 4.696500e-14 1 
    0.445431 3.121235e-02 4.719400e-14 1 
    0.445609 3.188793e-02 4.817700e-14 1 
    0.445786 3.228025e-02 4.873100e-14 1 
    0.445964 3.162519e-02 4.770400e-14 1 
    0.446141 3.278086e-02 4.940800e-14 1 
    0.446319 3.389664e-02 5.104900e-14 1 
    0.446497 3.357814e-02 5.052900e-14 1 
    0.446674 3.337931e-02 5.019000e-14 1 
    0.446852 3.274166e-02 4.919200e-14 1 
    0.447030 3.093658e-02 4.644300e-14 1 
    0.447207 2.983512e-02 4.475400e-14 1 
    0.447385 2.983820e-02 4.472300e-14 1 
    0.447563 2.944662e-02 4.410100e-14 1 
    0.447740 2.992298e-02 4.477900e-14 1 
    0.447918 3.029588e-02 4.530100e-14 1 
    0.448096 3.069745e-02 4.586500e-14 1 
    0.448273 3.255168e-02 4.859700e-14 1 
    0.448451 3.315270e-02 4.945500e-14 1 
    0.448628 3.303732e-02 4.924400e-14 1 
    0.448806 3.314076e-02 4.935900e-14 1 
    0.448984 3.416423e-02 5.084300e-14 1 
    0.449161 3.658118e-02 5.439700e-14 1 
    0.449339 3.694064e-02 5.488800e-14 1 
    0.449517 3.608486e-02 5.357400e-14 1 
    0.449694 3.486691e-02 5.172500e-14 1 
    0.449872 3.383604e-02 5.015600e-14 1 
    0.450050 3.468516e-02 5.137400e-14 1 
    0.450227 3.580705e-02 5.299400e-14 1 
    0.450405 3.609570e-02 5.337900e-14 1 
    0.450583 3.537576e-02 5.227300e-14 1 
    0.450760 3.530061e-02 5.212100e-14 1 
    0.450938 3.447851e-02 5.086700e-14 1 
    0.451115 3.332729e-02 4.913000e-14 1 
    0.451293 3.496527e-02 5.150400e-14 1 
    0.451471 3.578982e-02 5.267700e-14 1 
    0.451648 3.551327e-02 5.222900e-14 1 
    0.451826 3.703357e-02 5.442200e-14 1 
    0.452004 3.852765e-02 5.657300e-14 1 
    0.452181 3.844469e-02 5.640700e-14 1 
    0.452359 3.868914e-02 5.672100e-14 1 
    0.452537 3.895033e-02 5.705900e-14 1 
    0.452714 3.777023e-02 5.528700e-14 1 
    0.452892 3.814794e-02 5.579600e-14 1 
    0.453069 3.745179e-02 5.473500e-14 1 
    0.453247 3.679782e-02 5.373700e-14 1 
    0.453425 3.792049e-02 5.533300e-14 1 
    0.453602 3.764009e-02 5.488100e-14 1 
    0.453780 3.753991e-02 5.469200e-14 1 
    0.453958 3.675124e-02 5.350100e-14 1 
    0.454135 3.552873e-02 5.168100e-14 1 
    0.454313 3.479633e-02 5.057600e-14 1 
    0.454491 3.352434e-02 4.868900e-14 1 
    0.454668 3.323279e-02 4.822800e-14 1 
    0.454846 3.344018e-02 4.849100e-14 1 
    0.455023 3.357250e-02 4.864500e-14 1 
    0.455201 3.448700e-02 4.993100e-14 1 
    0.455379 3.468195e-02 5.017400e-14 1 
    0.455556 3.593888e-02 5.195200e-14 1 
    0.455734 3.724013e-02 5.379100e-14 1 
    0.455912 3.746184e-02 5.406900e-14 1 
    0.456089 3.652504e-02 5.267600e-14 1 
    0.456267 3.638146e-02 5.242800e-14 1 
    0.456445 3.686127e-02 5.307800e-14 1 
    0.456622 3.688430e-02 5.307000e-14 1 
    0.456800 3.568471e-02 5.130400e-14 1 
    0.456977 3.521048e-02 5.058300e-14 1 
    0.457155 3.674822e-02 5.275100e-14 1 
    0.457333 3.786794e-02 5.431600e-14 1 
    0.457510 3.887755e-02 5.572100e-14 1 
    0.457688 3.981275e-02 5.701700e-14 1 
    0.457866 3.956770e-02 5.662200e-14 1 
    0.458043 3.901504e-02 5.578800e-14 1 
    0.458221 3.828949e-02 5.470800e-14 1 
    0.458399 3.940211e-02 5.625400e-14 1 
    0.458576 4.032418e-02 5.752600e-14 1 
    0.458754 4.045371e-02 5.766600e-14 1 
    0.458932 4.020428e-02 5.726600e-14 1 
    0.459109 3.979476e-02 5.663900e-14 1 
    0.459287 4.089723e-02 5.816300e-14 1 
    0.459465 3.984524e-02 5.662300e-14 1 
    0.459642 3.834494e-02 5.444900e-14 1 
    0.459820 3.753314e-02 5.325500e-14 1 
    0.459997 3.820106e-02 5.416100e-14 1 
    0.460175 3.857015e-02 5.464200e-14 1 
    0.460353 3.808219e-02 5.390900e-14 1 
    0.460530 3.865231e-02 5.467400e-14 1 
    0.460708 3.900128e-02 5.512500e-14 1 
    0.460886 3.854499e-02 5.443800e-14 1 
    0.461063 3.877159e-02 5.471600e-14 1 
    0.461241 3.894337e-02 5.491600e-14 1 
    0.461419 3.850929e-02 5.426200e-14 1 
    0.461596 3.776397e-02 5.317100e-14 1 
    0.461774 3.844347e-02 5.408600e-14 1 
    0.461951 3.944177e-02 5.544800e-14 1 
    0.462129 3.778645e-02 5.308000e-14 1 
    0.462307 3.877734e-02 5.443000e-14 1 
    0.462484 4.105788e-02 5.758700e-14 1 
    0.462662 4.194501e-02 5.878600e-14 1 
    0.462840 4.261567e-02 5.968000e-14 1 
    0.463017 4.250249e-02 5.947600e-14 1 
    0.463195 4.235639e-02 5.922600e-14 1 
    0.463373 4.249845e-02 5.937900e-14 1 
    0.463550 4.212838e-02 5.881700e-14 1 
    0.463728 4.216504e-02 5.882300e-14 1 
    0.463905 4.244185e-02 5.916400e-14 1 
    0.464083 4.263453e-02 5.938700e-14 1 
    0.464261 4.277357e-02 5.953500e-14 1 
    0.464438 4.220869e-02 5.870400e-14 1 
    0.464616 4.189999e-02 5.823000e-14 1 
    0.464794 4.125735e-02 5.729300e-14 1 
    0.464971 4.186603e-02 5.809400e-14 1 
    0.465149 4.176250e-02 5.790600e-14 1 
    0.465327 4.080421e-02 5.653400e-14 1 
    0.465504 4.006888e-02 5.547300e-14 1 
    0.465682 3.979376e-02 5.505000e-14 1 
    0.465860 3.944150e-02 5.452100e-14 1 
    0.466037 3.884597e-02 5.365700e-14 1 
    0.466215 3.949584e-02 5.451300e-14 1 
    0.466392 3.854771e-02 5.316400e-14 1 
    0.466570 3.773252e-02 5.200000e-14 1 
    0.466748 3.854921e-02 5.308500e-14 1 
    0.466925 3.883572e-02 5.343900e-14 1 
    0.467103 3.884278e-02 5.340800e-14 1 
    0.467281 4.071165e-02 5.593500e-14 1 
    0.467458 4.200261e-02 5.766500e-14 1 
    0.467636 4.186257e-02 5.742900e-14 1 
    0.467814 4.201189e-02 5.759000e-14 1 
    0.467991 4.173780e-02 5.717100e-14 1 
    0.468169 4.039382e-02 5.528800e-14 1 
    0.468346 3.893865e-02 5.325600e-14 1 
    0.468524 3.794239e-02 5.185400e-14 1 
    0.468702 3.816674e-02 5.212100e-14 1 
    0.468879 3.925744e-02 5.357000e-14 1 
    0.469057 3.960040e-02 5.399700e-14 1 
    0.469235 4.045615e-02 5.512200e-14 1 
    0.469412 4.103607e-02 5.587000e-14 1 
    0.469590 4.094959e-02 5.571000e-14 1 
    0.469768 4.105200e-02 5.580700e-14 1 
    0.469945 4.047855e-02 5.498600e-14 1 
    0.470123 4.068309e-02 5.522200e-14 1 
    0.470301 4.170258e-02 5.656300e-14 1 
    0.470478 4.064568e-02 5.508800e-14 1 
    0.470656 4.038035e-02 5.468700e-14 1 
    0.470833 4.081936e-02 5.524000e-14 1 
    0.471011 4.013883e-02 5.427800e-14 1 
    0.471189 4.020766e-02 5.433000e-14 1 
    0.471366 4.026750e-02 5.437000e-14 1 
    0.471544 4.026159e-02 5.432100e-14 1 
    0.471722 3.978836e-02 5.364200e-14 1 
    0.471899 3.927857e-02 5.291500e-14 1 
    0.472077 3.910615e-02 5.264300e-14 1 
    0.472255 3.878995e-02 5.217800e-14 1 
    0.472432 3.906827e-02 5.251300e-14 1 
    0.472610 3.962261e-02 5.321800e-14 1 
    0.472787 4.012916e-02 5.385800e-14 1 
    0.472965 4.076485e-02 5.467000e-14 1 
    0.473143 4.119402e-02 5.520400e-14 1 
    0.473320 4.162063e-02 5.573400e-14 1 
    0.473498 4.281405e-02 5.728900e-14 1 
    0.473676 4.426425e-02 5.918500e-14 1 
    0.473853 4.504579e-02 6.018500e-14 1 
    0.474031 4.449017e-02 5.939800e-14 1 
    0.474209 4.334150e-02 5.782100e-14 1 
    0.474386 4.238067e-02 5.649700e-14 1 
    0.474564 4.262794e-02 5.678400e-14 1 
    0.474742 4.190490e-02 5.577900e-14 1 
    0.474919 3.935438e-02 5.234500e-14 1 
    0.475097 4.043422e-02 5.374100e-14 1 
    0.475274 4.295437e-02 5.704800e-14 1 
    0.475452 4.285543e-02 5.687400e-14 1 
    0.475630 4.301119e-02 5.703800e-14 1 
    0.475807 4.351109e-02 5.765800e-14 1 
    0.475985 4.397337e-02 5.822700e-14 1 
    0.476163 4.460558e-02 5.902000e-14 1 
    0.476340 4.494355e-02 5.942300e-14 1 
    0.476518 4.497110e-02 5.941500e-14 1 
    0.476696 4.441691e-02 5.863900e-14 1 
    0.476873 4.478646e-02 5.908300e-14 1 
    0.477051 4.456956e-02 5.875300e-14 1 
    0.477228 4.399228e-02 5.794900e-14 1 
    0.477406 4.419681e-02 5.817500e-14 1 
    0.477584 4.482811e-02 5.896200e-14 1 
    0.477761 4.399322e-02 5.782100e-14 1 
    0.477939 4.288997e-02 5.632900e-14 1 
    0.478117 4.279619e-02 5.616400e-14 1 
    0.478294 4.140039e-02 5.429200e-14 1 
    0.478472 4.164108e-02 5.456700e-14 1 
    0.478650 4.242658e-02 5.555500e-14 1 
    0.478827 4.268647e-02 5.585400e-14 1 
    0.479005 4.373237e-02 5.718000e-14 1 
    0.479183 4.516401e-02 5.900800e-14 1 
    0.479360 4.560487e-02 5.954000e-14 1 
    0.479538 4.820506e-02 6.288800e-14 1 
    0.479715 4.758248e-02 6.203000e-14 1 
    0.479893 4.573398e-02 5.957600e-14 1 
    0.480071 4.379279e-02 5.700500e-14 1 
    0.480248 4.462463e-02 5.804500e-14 1 
    0.480426 4.477081e-02 5.819200e-14 1 
    0.480604 4.483403e-02 5.823100e-14 1 
    0.480781 4.452727e-02 5.779000e-14 1 
    0.480959 4.602836e-02 5.969400e-14 1 
    0.481137 4.616584e-02 5.982800e-14 1 
    0.481314 4.641603e-02 6.010800e-14 1 
    0.481492 4.688931e-02 6.067600e-14 1 
    0.481669 4.680315e-02 6.052000e-14 1 
    0.481847 4.641287e-02 5.997100e-14 1 
    0.482025 4.636816e-02 5.986900e-14 1 
    0.482202 4.621466e-02 5.962700e-14 1 
    0.482380 4.683594e-02 6.038400e-14 1 
    0.482558 4.609197e-02 5.938100e-14 1 
    0.482735 4.553545e-02 5.862100e-14 1 
    0.482913 4.554493e-02 5.859000e-14 1 
    0.483091 4.570531e-02 5.875300e-14 1 
    0.483268 4.685284e-02 6.018400e-14 1 
    0.483446 4.753476e-02 6.101500e-14 1 
    0.483623 4.840456e-02 6.208600e-14 1 
    0.483801 4.786518e-02 6.134900e-14 1 
    0.483979 4.683620e-02 5.998600e-14 1 
    0.484156 4.649698e-02 5.950800e-14 1 
    0.484334 4.651397e-02 5.948600e-14 1 
    0.484512 4.560838e-02 5.828500e-14 1 
    0.484689 4.596825e-02 5.870200e-14 1 
    0.484867 4.561568e-02 5.820900e-14 1 
    0.485045 4.594405e-02 5.858500e-14 1 
    0.485222 4.563306e-02 5.814600e-14 1 
    0.485400 4.582440e-02 5.834700e-14 1 
    0.485578 4.653000e-02 5.920200e-14 1 
    0.485755 4.661191e-02 5.926300e-14 1 
    0.485933 4.613604e-02 5.861500e-14 1 
    0.486110 4.535520e-02 5.758100e-14 1 
    0.486288 4.504552e-02 5.714600e-14 1 
    0.486466 4.534277e-02 5.748100e-14 1 
    0.486643 4.581627e-02 5.803900e-14 1 
    0.486821 4.593905e-02 5.815200e-14 1 
    0.486999 4.540662e-02 5.743600e-14 1 
    0.487176 4.421178e-02 5.588400e-14 1 
    0.487354 4.310323e-02 5.444300e-14 1 
    0.487532 4.192648e-02 5.291800e-14 1 
    0.487709 4.000330e-02 5.045400e-14 1 
    0.487887 3.849402e-02 4.851500e-14 1 
    0.488065 3.952656e-02 4.978000e-14 1 
    0.488242 3.990883e-02 5.022500e-14 1 
    0.488420 4.176446e-02 5.252200e-14 1 
    0.488597 4.259527e-02 5.352800e-14 1 
    0.488775 4.181166e-02 5.250500e-14 1 
    0.488953 4.189232e-02 5.256800e-14 1 
    0.489130 4.214436e-02 5.284600e-14 1 
    0.489308 4.313672e-02 5.405100e-14 1 
    0.489486 4.441800e-02 5.561600e-14 1 
    0.489663 4.550352e-02 5.693400e-14 1 
    0.489841 4.582055e-02 5.728900e-14 1 
    0.490019 4.646455e-02 5.805200e-14 1 
    0.490196 4.539679e-02 5.667700e-14 1 
    0.490374 4.342588e-02 5.417700e-14 1 
    0.490552 4.354163e-02 5.428200e-14 1 
    0.490729 4.308661e-02 5.367600e-14 1 
    0.490907 4.298533e-02 5.351100e-14 1 
    0.491084 4.487329e-02 5.582100e-14 1 
    0.491262 4.753964e-02 5.909500e-14 1 
    0.491440 4.909321e-02 6.098200e-14 1 
    0.491617 5.019845e-02 6.231000e-14 1 
    0.491795 4.988975e-02 6.188200e-14 1 
    0.491973 4.781691e-02 5.926800e-14 1 
    0.492150 4.843587e-02 5.999200e-14 1 
    0.492328 4.825276e-02 5.972200e-14 1 
    0.492506 4.770146e-02 5.899700e-14 1 
    0.492683 4.724462e-02 5.839000e-14 1 
    0.492861 4.758402e-02 5.876700e-14 1 
    0.493038 4.795286e-02 5.918000e-14 1 
    0.493216 4.879188e-02 6.017200e-14 1 
    0.493394 4.752146e-02 5.856300e-14 1 
    0.493571 4.535818e-02 5.585700e-14 1 
    0.493749 4.464085e-02 5.493400e-14 1 
    0.493927 4.406882e-02 5.419100e-14 1 
    0.494104 4.473599e-02 5.497200e-14 1 
    0.494282 4.547185e-02 5.583600e-14 1 
    0.494460 4.737741e-02 5.813400e-14 1 
    0.494637 4.985147e-02 6.112600e-14 1 
    0.494815 5.043090e-02 6.179200e-14 1 
    0.494992 4.958329e-02 6.071000e-14 1 
    0.495170 5.049430e-02 6.178100e-14 1 
    0.495348 4.831819e-02 5.907600e-14 1 
    0.495525 4.678943e-02 5.716600e-14 1 
    0.495703 4.663957e-02 5.694200e-14 1 
    0.495881 4.728372e-02 5.768700e-14 1 
    0.496058 4.865202e-02 5.931400e-14 1 
    0.496236 5.003475e-02 6.095600e-14 1 
    0.496414 5.156154e-02 6.277100e-14 1 
    0.496591 5.204796e-02 6.331800e-14 1 
    0.496769 5.234439e-02 6.363300e-14 1 
    0.496947 5.260582e-02 6.390500e-14 1 
    0.497124 5.149578e-02 6.251200e-14 1 
    0.497302 4.943795e-02 5.997100e-14 1 
    0.497479 4.925784e-02 5.971000e-14 1 
    0.497657 4.722758e-02 5.720800e-14 1 
    0.497835 4.872694e-02 5.898200e-14 1 
    0.498012 4.843917e-02 5.859200e-14 1 
    0.498190 4.801878e-02 5.804200e-14 1 
    0.498368 4.921051e-02 5.944000e-14 1 
    0.498545 4.783373e-02 5.773600e-14 1 
    0.498723 4.674531e-02 5.638200e-14 1 
    0.498901 4.865042e-02 5.863800e-14 1 
    0.499078 5.151116e-02 6.204200e-14 1 
    0.499256 5.223171e-02 6.286500e-14 1 
    0.499433 5.013527e-02 6.029900e-14 1 
    0.499611 4.926991e-02 5.921600e-14 1 
    0.499789 4.745909e-02 5.699900e-14 1 
    0.499966 4.564546e-02 5.478200e-14 1 
    0.500144 4.431635e-02 5.314900e-14 1 
    0.500322 4.404918e-02 5.279100e-14 1 
    0.500499 4.506315e-02 5.396800e-14 1 
    0.500677 4.727192e-02 5.657300e-14 1 
    0.500855 4.781226e-02 5.717900e-14 1 
    0.501032 4.865857e-02 5.815000e-14 1 
    0.501210 4.911854e-02 5.865800e-14 1 
    0.501388 4.913667e-02 5.863800e-14 1 
    0.501565 4.806028e-02 5.731300e-14 1 
    0.501743 4.666113e-02 5.560500e-14 1 
    0.501920 4.535382e-02 5.400900e-14 1 
    0.502098 4.569188e-02 5.437300e-14 1 
    0.502276 4.553927e-02 5.415300e-14 1 
    0.502453 4.487038e-02 5.332000e-14 1 
    0.502631 4.450807e-02 5.285200e-14 1 
    0.502809 4.513540e-02 5.355900e-14 1 
    0.502986 4.508201e-02 5.345800e-14 1 
    0.503164 4.504472e-02 5.337600e-14 1 
    0.503342 4.353452e-02 5.155000e-14 1 
    0.503519 4.300315e-02 5.088500e-14 1 
    0.503697 4.392662e-02 5.194100e-14 1 
    0.503874 4.556885e-02 5.384500e-14 1 
    0.504052 4.559427e-02 5.383700e-14 1 
    0.504230 4.531629e-02 5.347100e-14 1 
    0.504407 4.628949e-02 5.458100e-14 1 
    0.504585 4.644863e-02 5.473000e-14 1 
    0.504763 4.796170e-02 5.647300e-14 1 
    0.504940 4.986593e-02 5.867400e-14 1 
    0.505118 4.856330e-02 5.710100e-14 1 
    0.505296 4.886051e-02 5.741000e-14 1 
    0.505473 4.820830e-02 5.660400e-14 1 
    0.505651 4.595389e-02 5.391900e-14 1 
    0.505829 4.494489e-02 5.269800e-14 1 
    0.506006 4.558488e-02 5.341100e-14 1 
    0.506184 4.551446e-02 5.329100e-14 1 
    0.506361 4.665139e-02 5.458400e-14 1 
    0.506539 4.743171e-02 5.545800e-14 1 
    0.506717 4.838425e-02 5.653200e-14 1 
    0.506894 4.694322e-02 5.481000e-14 1 
    0.507072 4.723503e-02 5.511200e-14 1 
    0.507250 5.018086e-02 5.850800e-14 1 
    0.507427 5.046994e-02 5.880400e-14 1 
    0.507605 5.031897e-02 5.858700e-14 1 
    0.507783 5.084417e-02 5.915700e-14 1 
    0.507960 5.064225e-02 5.888100e-14 1 
    0.508138 5.071733e-02 5.892700e-14 1 
    0.508315 5.005762e-02 5.812000e-14 1 
    0.508493 4.813018e-02 5.584300e-14 1 
    0.508671 4.791031e-02 5.554900e-14 1 
    0.508848 4.807398e-02 5.570000e-14 1 
    0.509026 4.851873e-02 5.617600e-14 1 
    0.509204 4.863738e-02 5.627400e-14 1 
    0.509381 4.910797e-02 5.677900e-14 1 
    0.509559 4.800329e-02 5.546300e-14 1 
    0.509737 4.725735e-02 5.456300e-14 1 
    0.509914 4.653007e-02 5.368600e-14 1 
    0.510092 4.696065e-02 5.414500e-14 1 
    0.510269 4.656363e-02 5.365000e-14 1 
    0.510447 4.672206e-02 5.379500e-14 1 
    0.510625 4.938810e-02 5.682500e-14 1 
    0.510802 4.952237e-02 5.694000e-14 1 
    0.510980 5.038457e-02 5.789100e-14 1 
    0.511158 5.061739e-02 5.811800e-14 1 
    0.511335 5.028117e-02 5.769200e-14 1 
    0.511513 4.953561e-02 5.679700e-14 1 
    0.511691 4.887538e-02 5.600100e-14 1 
    0.511868 4.783758e-02 5.477400e-14 1 
    0.512046 4.863470e-02 5.564800e-14 1 
    0.512224 4.929909e-02 5.636900e-14 1 
    0.512401 4.798276e-02 5.482600e-14 1 
    0.512579 4.753442e-02 5.427600e-14 1 
    0.512756 4.747260e-02 5.416800e-14 1 
    0.512934 4.805457e-02 5.479400e-14 1 
    0.513112 4.853376e-02 5.530200e-14 1 
    0.513289 4.965185e-02 5.653700e-14 1 
    0.513467 5.111175e-02 5.815900e-14 1 
    0.513645 5.162737e-02 5.870500e-14 1 
    0.513822 5.075035e-02 5.766800e-14 1 
    0.514000 4.875913e-02 5.536700e-14 1 
    0.514178 4.725246e-02 5.361900e-14 1 
    0.514355 4.772240e-02 5.411500e-14 1 
    0.514533 4.619610e-02 5.234800e-14 1 
    0.514710 4.496331e-02 5.091600e-14 1 
    0.514888 4.560769e-02 5.161000e-14 1 
    0.515066 4.734419e-02 5.353800e-14 1 
    0.515243 4.848111e-02 5.478600e-14 1 
    0.515421 4.920001e-02 5.556000e-14 1 
    0.515599 4.953884e-02 5.590400e-14 1 
    0.515776 4.852205e-02 5.471900e-14 1 
    0.515954 4.826893e-02 5.439600e-14 1 
    0.516132 4.811576e-02 5.418600e-14 1 
    0.516309 4.729040e-02 5.322000e-14 1 
    0.516487 4.732480e-02 5.322200e-14 1 
    0.516665 4.680218e-02 5.259800e-14 1 
    0.516842 4.758042e-02 5.343600e-14 1 
    0.517020 4.768270e-02 5.351400e-14 1 
    0.517198 4.756931e-02 5.335000e-14 1 
    0.517375 4.833174e-02 5.416800e-14 1 
    0.517553 4.931859e-02 5.523600e-14 1 
    0.517730 5.130190e-02 5.741800e-14 1 
    0.517908 5.208375e-02 5.825300e-14 1 
    0.518086 5.031135e-02 5.623200e-14 1 
    0.518263 4.766872e-02 5.324200e-14 1 
    0.518441 4.346997e-02 4.851900e-14 1 
    0.518619 4.017002e-02 4.480500e-14 1 
    0.518796 3.806848e-02 4.243200e-14 1 
    0.518974 3.678654e-02 4.097500e-14 1 
    0.519152 3.735531e-02 4.158000e-14 1 
    0.519329 3.889022e-02 4.325900e-14 1 
    0.519507 4.133867e-02 4.595100e-14 1 
    0.519684 4.389651e-02 4.876100e-14 1 
    0.519862 4.352031e-02 4.831000e-14 1 
    0.520040 4.245392e-02 4.709400e-14 1 
    0.520217 4.112879e-02 4.559300e-14 1 
    0.520395 4.109376e-02 4.552300e-14 1 
    0.520573 4.263132e-02 4.719400e-14 1 
    0.520750 4.553031e-02 5.036900e-14 1 
    0.520928 4.748995e-02 5.250100e-14 1 
    0.521106 4.861133e-02 5.370400e-14 1 
    0.521283 4.948493e-02 5.463200e-14 1 
    0.521461 4.933110e-02 5.442500e-14 1 
    0.521638 5.023534e-02 5.538500e-14 1 
    0.521816 5.088229e-02 5.606000e-14 1 
    0.521994 5.228212e-02 5.756300e-14 1 
    0.522171 5.186042e-02 5.706000e-14 1 
    0.522349 4.958385e-02 5.451800e-14 1 
    0.522527 4.789844e-02 5.262900e-14 1 
    0.522704 4.678428e-02 5.137000e-14 1 
    0.522882 4.774664e-02 5.239100e-14 1 
    0.523060 4.872122e-02 5.342400e-14 1 
    0.523237 5.058303e-02 5.542800e-14 1 
    0.523415 5.247492e-02 5.746200e-14 1 
    0.523593 5.327185e-02 5.829500e-14 1 
    0.523770 5.507185e-02 6.022400e-14 1 
    0.523948 5.508640e-02 6.019900e-14 1 
    0.524125 5.406967e-02 5.904800e-14 1 
    0.524303 5.265312e-02 5.746200e-14 1 
    0.524481 5.052951e-02 5.510700e-14 1 
    0.524658 5.037368e-02 5.490000e-14 1 
    0.524836 5.157395e-02 5.617000e-14 1 
    0.525014 5.285943e-02 5.753100e-14 1 
    0.525191 5.389632e-02 5.862000e-14 1 
    0.525369 5.442600e-02 5.915600e-14 1 
    0.525547 5.510276e-02 5.985100e-14 1 
    0.525724 5.666000e-02 6.150100e-14 1 
    0.525902 5.739257e-02 6.225400e-14 1 
    0.526079 5.813326e-02 6.301500e-14 1 
    0.526257 5.792703e-02 6.274900e-14 1 
    0.526435 5.673484e-02 6.141600e-14 1 
    0.526612 5.578665e-02 6.034900e-14 1 
    0.526790 5.502145e-02 5.948100e-14 1 
    0.526968 5.435978e-02 5.872600e-14 1 
    0.527145 5.328570e-02 5.752700e-14 1 
    0.527323 5.441728e-02 5.870900e-14 1 
    0.527501 5.617272e-02 6.056200e-14 1 
    0.527678 5.710795e-02 6.152900e-14 1 
    0.527856 5.739354e-02 6.179500e-14 1 
    0.528033 5.545428e-02 5.966700e-14 1 
    0.528211 5.288575e-02 5.686500e-14 1 
    0.528389 5.074554e-02 5.452700e-14 1 
    0.528566 4.783579e-02 5.136600e-14 1 
    0.528744 4.588959e-02 4.924300e-14 1 
    0.528922 4.749180e-02 5.092800e-14 1 
    0.529099 4.902597e-02 5.253800e-14 1 
    0.529277 5.063518e-02 5.422600e-14 1 
    0.529455 5.313515e-02 5.686500e-14 1 
    0.529632 5.509872e-02 5.892700e-14 1 
    0.529810 5.607423e-02 5.993000e-14 1 
    0.529988 5.719801e-02 6.109000e-14 1 
    0.530165 5.732054e-02 6.118000e-14 1 
    0.530343 5.708529e-02 6.088800e-14 1 
    0.530520 5.770130e-02 6.150400e-14 1 
    0.530698 5.973686e-02 6.363100e-14 1 
    0.530876 6.155340e-02 6.552200e-14 1 
    0.531053 6.117330e-02 6.507400e-14 1 
    0.531231 6.073270e-02 6.456200e-14 1 
    0.531409 6.037616e-02 6.414000e-14 1 
    0.531586 5.793812e-02 6.150900e-14 1 
    0.531764 5.643677e-02 5.987500e-14 1 
    0.531942 5.598692e-02 5.935800e-14 1 
    0.532119 5.686137e-02 6.024500e-14 1 
    0.532297 5.940698e-02 6.290000e-14 1 
    0.532475 6.110536e-02 6.465500e-14 1 
    0.532652 6.241326e-02 6.599500e-14 1 
    0.532830 6.296223e-02 6.653100e-14 1 
    0.533007 6.210822e-02 6.558500e-14 1 
    0.533185 6.244916e-02 6.590100e-14 1 
    0.533363 6.263025e-02 6.604800e-14 1 
    0.533540 6.167170e-02 6.499400e-14 1 
    0.533718 6.139953e-02 6.466400e-14 1 
    0.533896 6.100056e-02 6.420100e-14 1 
    0.534073 6.034125e-02 6.346500e-14 1 
    0.534251 5.922835e-02 6.225300e-14 1 
    0.534429 5.751131e-02 6.040800e-14 1 
    0.534606 5.483428e-02 5.755800e-14 1 
    0.534784 5.290983e-02 5.550100e-14 1 
    0.534961 5.357064e-02 5.615700e-14 1 
    0.535139 5.483771e-02 5.744700e-14 1 
    0.535317 5.806748e-02 6.079000e-14 1 
    0.535494 5.983501e-02 6.259900e-14 1 
    0.535672 6.102927e-02 6.380600e-14 1 
    0.535850 6.064870e-02 6.336600e-14 1 
    0.536027 5.861046e-02 6.119600e-14 1 
    0.536205 5.786159e-02 6.037400e-14 1 
    0.536383 5.829993e-02 6.079100e-14 1 
    0.536560 5.919635e-02 6.168500e-14 1 
    0.536738 5.979164e-02 6.226400e-14 1 
    0.536916 5.987262e-02 6.230700e-14 1 
    0.537093 6.064866e-02 6.307300e-14 1 
    0.537271 6.114014e-02 6.354200e-14 1 
    0.537448 6.394858e-02 6.641700e-14 1 
    0.537626 6.507967e-02 6.754700e-14 1 
    0.537804 6.660075e-02 6.908000e-14 1 
    0.537981 6.561521e-02 6.801300e-14 1 
    0.538159 6.335234e-02 6.562400e-14 1 
    0.538337 6.348313e-02 6.571600e-14 1 
    0.538514 6.122810e-02 6.334000e-14 1 
    0.538692 5.961934e-02 6.163500e-14 1 
    0.538870 5.865695e-02 6.060000e-14 1 
    0.539047 5.753029e-02 5.939700e-14 1 
    0.539225 5.878465e-02 6.065200e-14 1 
    0.539402 6.007920e-02 6.194700e-14 1 
    0.539580 6.128149e-02 6.314500e-14 1 
    0.539758 6.263199e-02 6.449400e-14 1 
    0.539935 6.213375e-02 6.393900e-14 1 
    0.540113 6.319477e-02 6.498800e-14 1 
    0.540291 6.242102e-02 6.415000e-14 1 
    0.540468 6.185728e-02 6.352900e-14 1 
    0.540646 6.264922e-02 6.430000e-14 1 
    0.540824 6.092872e-02 6.249300e-14 1 
    0.541001 6.061446e-02 6.213000e-14 1 
    0.541179 6.002858e-02 6.148900e-14 1 
    0.541356 5.756995e-02 5.893200e-14 1 
    0.541534 5.697926e-02 5.828900e-14 1 
    0.541712 5.706466e-02 5.833800e-14 1 
    0.541889 5.761485e-02 5.886200e-14 1 
    0.542067 5.800335e-02 5.922000e-14 1 
    0.542245 5.703783e-02 5.819600e-14 1 
    0.542422 5.748993e-02 5.861900e-14 1 
    0.542600 5.677789e-02 5.785500e-14 1 
    0.542778 5.478235e-02 5.578500e-14 1 
    0.542955 5.636676e-02 5.736100e-14 1 
    0.543133 5.832217e-02 5.931200e-14 1 
    0.543311 5.972909e-02 6.070300e-14 1 
    0.543488 6.028591e-02 6.122900e-14 1 
    0.543666 6.250477e-02 6.344100e-14 1 
    0.543844 6.334919e-02 6.425600e-14 1 
    0.544021 6.269690e-02 6.355300e-14 1 
    0.544199 6.360765e-02 6.443400e-14 1 
    0.544376 6.234609e-02 6.311500e-14 1 
    0.544554 6.254009e-02 6.327000e-14 1 
    0.544732 6.280352e-02 6.349500e-14 1 
    0.544909 6.256524e-02 6.321300e-14 1 
    0.545087 6.036485e-02 6.095000e-14 1 
    0.545265 5.928637e-02 5.982200e-14 1 
    0.545442 5.936950e-02 5.986700e-14 1 
    0.545620 6.256984e-02 6.305300e-14 1 
    0.545798 6.311809e-02 6.356400e-14 1 
    0.545975 6.334683e-02 6.375300e-14 1 
    0.546153 6.575949e-02 6.613800e-14 1 
    0.546330 6.351579e-02 6.384000e-14 1 
    0.546508 6.090599e-02 6.117700e-14 1 
    0.546686 6.096061e-02 6.119200e-14 1 
    0.546863 6.158026e-02 6.177400e-14 1 
    0.547041 6.096699e-02 6.111900e-14 1 
    0.547219 6.175030e-02 6.186400e-14 1 
    0.547396 6.127886e-02 6.135200e-14 1 
    0.547574 6.034726e-02 6.038000e-14 1 
    0.547752 5.996245e-02 5.995600e-14 1 
    0.547929 6.206976e-02 6.202300e-14 1 
    0.548107 6.266388e-02 6.257600e-14 1 
    0.548284 6.260615e-02 6.247800e-14 1 
    0.548462 6.296266e-02 6.279300e-14 1 
    0.548640 6.150252e-02 6.129700e-14 1 
    0.548817 6.151510e-02 6.127000e-14 1 
    0.548995 6.359044e-02 6.329600e-14 1 
    0.549173 6.365681e-02 6.332100e-14 1 
    0.549350 6.178352e-02 6.141800e-14 1 
    0.549528 6.045559e-02 6.005900e-14 1 
    0.549706 5.904230e-02 5.861700e-14 1 
    0.549883 5.968810e-02 5.922000e-14 1 
    0.550061 6.167527e-02 6.115200e-14 1 
    0.550239 6.173741e-02 6.117400e-14 1 
    0.550416 6.160343e-02 6.100200e-14 1 
    0.550594 6.261338e-02 6.196200e-14 1 
    0.550771 6.362233e-02 6.292000e-14 1 
    0.550949 6.309483e-02 6.235800e-14 1 
    0.551127 6.255040e-02 6.178000e-14 1 
    0.551304 6.396842e-02 6.314000e-14 1 
    0.551482 6.490793e-02 6.402600e-14 1 
    0.551660 6.476725e-02 6.384600e-14 1 
    0.551837 6.382013e-02 6.287200e-14 1 
    0.552015 6.352713e-02 6.254300e-14 1 
    0.552193 6.329877e-02 6.227800e-14 1 
    0.552370 6.241689e-02 6.137100e-14 1 
    0.552548 6.234212e-02 6.125800e-14 1 
    0.552725 6.192483e-02 6.080900e-14 1 
    0.552903 6.264848e-02 6.148000e-14 1 
    0.553081 6.344540e-02 6.222200e-14 1 
    0.553258 6.219227e-02 6.095400e-14 1 
    0.553436 6.159826e-02 6.033300e-14 1 
    0.553614 6.192600e-02 6.061500e-14 1 
    0.553791 6.301446e-02 6.164100e-14 1 
    0.553969 6.521440e-02 6.375200e-14 1 
    0.554147 6.637716e-02 6.484700e-14 1 
    0.554324 6.601704e-02 6.445400e-14 1 
    0.554502 6.501506e-02 6.343500e-14 1 
    0.554680 6.431633e-02 6.271300e-14 1 
    0.554857 6.395819e-02 6.232400e-14 1 
    0.555035 6.374355e-02 6.207500e-14 1 
    0.555212 6.417365e-02 6.245400e-14 1 
    0.555390 6.463224e-02 6.286000e-14 1 
    0.555568 6.547104e-02 6.363500e-14 1 
    0.555745 6.479520e-02 6.293800e-14 1 
    0.555923 6.493457e-02 6.303300e-14 1 
    0.556101 6.651003e-02 6.452100e-14 1 
    0.556278 6.638838e-02 6.436200e-14 1 
    0.556456 6.719156e-02 6.509900e-14 1 
    0.556634 6.770550e-02 6.555500e-14 1 
    0.556811 6.694558e-02 6.477800e-14 1 
    0.556989 6.733792e-02 6.511600e-14 1 
    0.557166 6.825201e-02 6.595800e-14 1 
    0.557344 7.101883e-02 6.858800e-14 1 
    0.557522 6.937432e-02 6.695700e-14 1 
    0.557699 6.796069e-02 6.555100e-14 1 
    0.557877 6.663157e-02 6.422800e-14 1 
    0.558055 6.567338e-02 6.326400e-14 1 
    0.558232 6.584593e-02 6.339000e-14 1 
    0.558410 6.635047e-02 6.383500e-14 1 
    0.558588 6.647389e-02 6.391300e-14 1 
    0.558765 6.608725e-02 6.350100e-14 1 
    0.558943 6.680419e-02 6.414900e-14 1 
    0.559121 6.598288e-02 6.332000e-14 1 
    0.559298 6.628951e-02 6.357400e-14 1 
    0.559476 6.625763e-02 6.350300e-14 1 
    0.559653 6.610642e-02 6.331800e-14 1 
    0.559831 6.679305e-02 6.393500e-14 1 
    0.560009 6.720141e-02 6.428500e-14 1 
    0.560186 6.720101e-02 6.424400e-14 1 
    0.560364 6.614994e-02 6.319900e-14 1 
    0.560542 6.494037e-02 6.200400e-14 1 
    0.560719 6.375102e-02 6.083000e-14 1 
    0.560897 6.272080e-02 5.980900e-14 1 
    0.561075 6.229470e-02 5.936500e-14 1 
    0.561252 6.374312e-02 6.070700e-14 1 
    0.561430 6.362490e-02 6.055600e-14 1 
    0.561607 6.428847e-02 6.114900e-14 1 
    0.561785 6.550959e-02 6.227100e-14 1 
    0.561963 6.441632e-02 6.119300e-14 1 
    0.562140 6.301172e-02 5.982100e-14 1 
    0.562318 6.507007e-02 6.173600e-14 1 
    0.562496 6.539075e-02 6.200100e-14 1 
    0.562673 6.719960e-02 6.367600e-14 1 
    0.562851 6.840584e-02 6.477800e-14 1 
    0.563029 6.980271e-02 6.605900e-14 1 
    0.563206 7.103188e-02 6.718000e-14 1 
    0.563384 6.923056e-02 6.543500e-14 1 
    0.563562 6.763972e-02 6.389100e-14 1 
    0.563739 6.609321e-02 6.239100e-14 1 
    0.563917 6.655154e-02 6.278400e-14 1 
    0.564094 6.520278e-02 6.147300e-14 1 
    0.564272 6.649526e-02 6.265200e-14 1 
    0.564450 6.658819e-02 6.270000e-14 1 
    0.564627 6.556091e-02 6.169400e-14 1 
    0.564805 6.585532e-02 6.193200e-14 1 
    0.564983 6.686936e-02 6.284600e-14 1 
    0.565160 6.755859e-02 6.345400e-14 1 
    0.565338 6.786856e-02 6.370500e-14 1 
    0.565516 6.776526e-02 6.356800e-14 1 
    0.565693 6.689460e-02 6.271200e-14 1 
    0.565871 6.806277e-02 6.376700e-14 1 
    0.566048 6.754784e-02 6.324500e-14 1 
    0.566226 6.668086e-02 6.239400e-14 1 
    0.566404 6.595925e-02 6.168000e-14 1 
    0.566581 6.696995e-02 6.258600e-14 1 
    0.566759 6.750670e-02 6.304800e-14 1 
    0.566937 6.741627e-02 6.292400e-14 1 
    0.567114 6.902143e-02 6.438200e-14 1 
    0.567292 6.922997e-02 6.453600e-14 1 
    0.567470 6.779319e-02 6.315700e-14 1 
    0.567647 6.681726e-02 6.220900e-14 1 
    0.567825 6.594241e-02 6.135600e-14 1 
    0.568002 6.627496e-02 6.162700e-14 1 
    0.568180 6.544057e-02 6.081300e-14 1 
    0.568358 6.636561e-02 6.163400e-14 1 
    0.568535 6.613328e-02 6.138000e-14 1 
    0.568713 6.815411e-02 6.321600e-14 1 
    0.568891 6.846972e-02 6.346900e-14 1 
    0.569068 6.932949e-02 6.422600e-14 1 
    0.569246 6.908879e-02 6.396300e-14 1 
    0.569424 6.965187e-02 6.444400e-14 1 
    0.569601 6.938694e-02 6.415900e-14 1 
    0.569779 7.089666e-02 6.551400e-14 1 
    0.569957 7.004545e-02 6.468700e-14 1 
    0.570134 6.866632e-02 6.337400e-14 1 
    0.570312 6.851839e-02 6.319800e-14 1 
    0.570489 6.859781e-02 6.323200e-14 1 
    0.570667 6.938747e-02 6.392000e-14 1 
    0.570845 6.904081e-02 6.356100e-14 1 
    0.571022 6.882061e-02 6.331900e-14 1 
    0.571200 6.846981e-02 6.295700e-14 1 
    0.571378 7.050071e-02 6.478400e-14 1 
    0.571555 7.068705e-02 6.491500e-14 1 
    0.571733 7.156681e-02 6.568200e-14 1 
    0.571911 7.077513e-02 6.491500e-14 1 
    0.572088 6.952072e-02 6.372500e-14 1 
    0.572266 6.855860e-02 6.280400e-14 1 
    0.572444 6.775144e-02 6.202600e-14 1 
    0.572621 6.721953e-02 6.150100e-14 1 
    0.572799 6.732477e-02 6.155900e-14 1 
    0.572976 6.742984e-02 6.161700e-14 1 
    0.573154 6.503971e-02 5.939600e-14 1 
    0.573332 6.643877e-02 6.063600e-14 1 
    0.573509 6.764525e-02 6.169900e-14 1 
    0.573687 6.882162e-02 6.273300e-14 1 
    0.573865 7.056033e-02 6.427800e-14 1 
    0.574042 7.193843e-02 6.549300e-14 1 
    0.574220 7.357015e-02 6.693700e-14 1 
    0.574398 7.336172e-02 6.670600e-14 1 
    0.574575 7.222175e-02 6.562900e-14 1 
    0.574753 7.057846e-02 6.409600e-14 1 
    0.574930 6.957851e-02 6.314900e-14 1 
    0.575108 6.978036e-02 6.329300e-14 1 
    0.575286 7.301837e-02 6.618900e-14 1 
    0.575463 7.246171e-02 6.564400e-14 1 
    0.575641 7.272083e-02 6.583800e-14 1 
    0.575819 7.195015e-02 6.510000e-14 1 
    0.575996 7.158078e-02 6.472600e-14 1 
    0.576174 7.282901e-02 6.581400e-14 1 
    0.576352 7.287844e-02 6.581800e-14 1 
    0.576529 7.328993e-02 6.614900e-14 1 
    0.576707 7.243831e-02 6.534000e-14 1 
    0.576884 7.243064e-02 6.529300e-14 1 
    0.577062 7.275840e-02 6.554800e-14 1 
    0.577240 7.108729e-02 6.400300e-14 1 
    0.577417 7.053185e-02 6.346400e-14 1 
    0.577595 7.164182e-02 6.442300e-14 1 
    0.577773 7.157359e-02 6.432200e-14 1 
    0.577950 7.174771e-02 6.443900e-14 1 
    0.578128 7.128165e-02 6.398100e-14 1 
    0.578306 7.227425e-02 6.483200e-14 1 
    0.578483 7.233746e-02 6.484900e-14 1 
    0.578661 7.220785e-02 6.469300e-14 1 
    0.578839 7.390635e-02 6.617400e-14 1 
    0.579016 7.364199e-02 6.589700e-14 1 
    0.579194 7.455501e-02 6.667300e-14 1 
    0.579371 7.434100e-02 6.644100e-14 1 
    0.579549 7.339138e-02 6.555200e-14 1 
    0.579727 7.365268e-02 6.574500e-14 1 
    0.579904 7.296118e-02 6.508800e-14 1 
    0.580082 7.177889e-02 6.399400e-14 1 
    0.580260 6.992845e-02 6.230600e-14 1 
    0.580437 6.903452e-02 6.147200e-14 1 
    0.580615 6.876671e-02 6.119600e-14 1 
    0.580793 6.862224e-02 6.103000e-14 1 
    0.580970 7.173781e-02 6.376200e-14 1 
    0.581148 7.337587e-02 6.517800e-14 1 
    0.581326 7.342758e-02 6.518400e-14 1 
    0.581503 7.426131e-02 6.588400e-14 1 
    0.581681 7.423686e-02 6.582200e-14 1 
    0.581858 7.613960e-02 6.746800e-14 1 
    0.582036 7.538558e-02 6.675900e-14 1 
    0.582214 7.628027e-02 6.751000e-14 1 
    0.582391 7.687499e-02 6.799500e-14 1 
    0.582569 7.570358e-02 6.691800e-14 1 
    0.582747 7.638717e-02 6.748100e-14 1 
    0.582924 7.562485e-02 6.676700e-14 1 
    0.583102 7.488222e-02 6.607100e-14 1 
    0.583280 7.574105e-02 6.678800e-14 1 
    0.583457 7.671978e-02 6.761000e-14 1 
    0.583635 7.433678e-02 6.547000e-14 1 
    0.583812 7.554299e-02 6.649200e-14 1 
    0.583990 7.704873e-02 6.777600e-14 1 
    0.584168 7.576028e-02 6.660200e-14 1 
    0.584345 7.665188e-02 6.734500e-14 1 
    0.584523 7.663935e-02 6.729300e-14 1 
    0.584701 7.735383e-02 6.787900e-14 1 
    0.584878 7.870172e-02 6.902000e-14 1 
    0.585056 7.884663e-02 6.910500e-14 1 
    0.585234 7.813654e-02 6.844100e-14 1 
    0.585411 7.756694e-02 6.790100e-14 1 
    0.585589 7.651222e-02 6.693700e-14 1 
    0.585767 7.766131e-02 6.790100e-14 1 
    0.585944 7.735004e-02 6.758800e-14 1 
    0.586122 7.677410e-02 6.704400e-14 1 
    0.586299 7.812328e-02 6.818100e-14 1 
    0.586477 7.917048e-02 6.905300e-14 1 
    0.586655 7.788089e-02 6.788700e-14 1 
    0.586832 7.555632e-02 6.582100e-14 1 
    0.587010 7.635680e-02 6.647800e-14 1 
    0.587188 7.537793e-02 6.558600e-14 1 
    0.587365 7.378120e-02 6.415800e-14 1 
    0.587543 7.308833e-02 6.351700e-14 1 
    0.587721 7.233011e-02 6.282000e-14 1 
    0.587898 7.210064e-02 6.258300e-14 1 
    0.588076 7.191144e-02 6.238100e-14 1 
    0.588253 7.227655e-02 6.266000e-14 1 
    0.588431 7.020471e-02 6.082700e-14 1 
    0.588609 7.048509e-02 6.103300e-14 1 
    0.588786 7.066846e-02 6.115500e-14 1 
    0.588964 7.151481e-02 6.185000e-14 1 
    0.589142 7.089278e-02 6.127500e-14 1 
    0.589319 6.953231e-02 6.006300e-14 1 
    0.589497 7.287449e-02 6.291200e-14 1 
    0.589675 7.332764e-02 6.326500e-14 1 
    0.589852 7.214580e-02 6.220800e-14 1 
    0.590030 7.277770e-02 6.271500e-14 1 
    0.590208 7.300276e-02 6.287100e-14 1 
    0.590385 7.234945e-02 6.227100e-14 1 
    0.590563 7.154325e-02 6.154000e-14 1 
    0.590740 6.850587e-02 5.889200e-14 1 
    0.590918 6.568735e-02 5.643500e-14 1 
    0.591096 6.022629e-02 5.171200e-14 1 
    0.591273 5.725228e-02 4.912900e-14 1 
    0.591451 5.633409e-02 4.831200e-14 1 
    0.591629 5.560845e-02 4.766100e-14 1 
    0.591806 5.733570e-02 4.911200e-14 1 
    0.591984 6.145404e-02 5.260800e-14 1 
    0.592162 6.329922e-02 5.415500e-14 1 
    0.592339 6.659076e-02 5.693700e-14 1 
    0.592517 7.104147e-02 6.070600e-14 1 
    0.592694 7.362372e-02 6.287500e-14 1 
    0.592872 7.429245e-02 6.340800e-14 1 
    0.593050 7.292202e-02 6.220100e-14 1 
    0.593227 7.398964e-02 6.307400e-14 1 
    0.593405 7.327110e-02 6.242400e-14 1 
    0.593583 7.293337e-02 6.209900e-14 1 
    0.593760 7.362322e-02 6.264900e-14 1 
    0.593938 7.224573e-02 6.144000e-14 1 
    0.594116 7.255495e-02 6.166600e-14 1 
    0.594293 7.237333e-02 6.147500e-14 1 
    0.594471 7.351103e-02 6.240400e-14 1 
    0.594648 7.366207e-02 6.249500e-14 1 
    0.594826 7.344907e-02 6.227700e-14 1 
    0.595004 7.519592e-02 6.372000e-14 1 
    0.595181 7.560081e-02 6.402500e-14 1 
    0.595359 7.650617e-02 6.475300e-14 1 
    0.595537 7.627647e-02 6.452000e-14 1 
    0.595714 7.446583e-02 6.295100e-14 1 
    0.595892 7.544658e-02 6.374200e-14 1 
    0.596070 7.603053e-02 6.419700e-14 1 
    0.596247 7.594890e-02 6.409000e-14 1 
    0.596425 7.619344e-02 6.425800e-14 1 
    0.596603 7.520316e-02 6.338500e-14 1 
    0.596780 7.600281e-02 6.402100e-14 1 
    0.596958 7.543641e-02 6.350600e-14 1 
    0.597135 7.487381e-02 6.299500e-14 1 
    0.597313 7.585203e-02 6.378000e-14 1 
    0.597491 7.501666e-02 6.304000e-14 1 
    0.597668 7.563859e-02 6.352500e-14 1 
    0.597846 7.431235e-02 6.237400e-14 1 
    0.598024 7.543071e-02 6.327500e-14 1 
    0.598201 7.667175e-02 6.427800e-14 1 
    0.598379 7.764356e-02 6.505400e-14 1 
    0.598557 7.683827e-02 6.434100e-14 1 
    0.598734 7.655869e-02 6.406900e-14 1 
    0.598912 7.755716e-02 6.486600e-14 1 
    0.599090 7.734724e-02 6.465200e-14 1 
    0.599267 7.694166e-02 6.427500e-14 1 
    0.599445 7.803304e-02 6.514800e-14 1 
    0.599622 7.785981e-02 6.496500e-14 1 
    0.599800 7.525221e-02 6.275200e-14 1 
    0.599978 7.488650e-02 6.241000e-14 1 
    0.600155 7.598484e-02 6.328800e-14 1 
    0.600333 7.666063e-02 6.381300e-14 1 
    0.600511 7.599568e-02 6.322200e-14 1 
    0.600688 7.516728e-02 6.249600e-14 1 
    0.600866 7.578108e-02 6.296900e-14 1 
    0.601044 7.663520e-02 6.364100e-14 1 
    0.601221 7.598872e-02 6.306700e-14 1 
    0.601399 7.687163e-02 6.376200e-14 1 
    0.601576 7.776974e-02 6.446900e-14 1 
    0.601754 7.768179e-02 6.435800e-14 1 
    0.601932 7.831834e-02 6.484700e-14 1 
    0.602109 7.817709e-02 6.469200e-14 1 
    0.602287 7.730920e-02 6.393600e-14 1 
    0.602465 7.665317e-02 6.335600e-14 1 
    0.602642 7.495860e-02 6.191900e-14 1 
    0.602820 7.511555e-02 6.201200e-14 1 
    0.602998 7.672220e-02 6.330100e-14 1 
    0.603175 7.623850e-02 6.286500e-14 1 
    0.603353 7.569497e-02 6.238000e-14 1 
    0.603530 7.554755e-02 6.222200e-14 1 
    0.603708 7.556418e-02 6.219900e-14 1 
    0.603886 7.504836e-02 6.173800e-14 1 
    0.604063 7.524196e-02 6.186100e-14 1 
    0.604241 7.541289e-02 6.196500e-14 1 
    0.604419 7.553404e-02 6.202800e-14 1 
    0.604596 7.575862e-02 6.217600e-14 1 
    0.604774 7.718456e-02 6.330900e-14 1 
    0.604952 8.006991e-02 6.563700e-14 1 
    0.605129 8.003499e-02 6.557000e-14 1 
    0.605307 7.964118e-02 6.520900e-14 1 
    0.605485 7.937030e-02 6.494900e-14 1 
    0.605662 8.026530e-02 6.564300e-14 1 
    0.605840 8.107226e-02 6.626400e-14 1 
    0.606017 8.086990e-02 6.606000e-14 1 
    0.606195 8.091865e-02 6.606100e-14 1 
    0.606373 7.994278e-02 6.522600e-14 1 
    0.606550 7.909299e-02 6.449500e-14 1 
    0.606728 8.017260e-02 6.533700e-14 1 
    0.606906 8.103368e-02 6.600000e-14 1 
    0.607083 8.134139e-02 6.621200e-14 1 
    0.607261 8.043768e-02 6.543800e-14 1 
    0.607439 7.973582e-02 6.482900e-14 1 
    0.607616 8.042223e-02 6.534900e-14 1 
    0.607794 8.079320e-02 6.561200e-14 1 
    0.607971 7.998890e-02 6.492100e-14 1 
    0.608149 7.881525e-02 6.393100e-14 1 
    0.608327 7.932520e-02 6.430700e-14 1 
    0.608504 7.953553e-02 6.444000e-14 1 
    0.608682 7.903620e-02 6.399800e-14 1 
    0.608860 7.993878e-02 6.469100e-14 1 
    0.609037 8.049095e-02 6.510000e-14 1 
    0.609215 8.095369e-02 6.543600e-14 1 
    0.609393 8.356958e-02 6.751100e-14 1 
    0.609570 8.263718e-02 6.671900e-14 1 
    0.609748 8.202241e-02 6.618400e-14 1 
    0.609926 8.128908e-02 6.555400e-14 1 
    0.610103 8.070969e-02 6.504900e-14 1 
    0.610281 7.900755e-02 6.364000e-14 1 
    0.610458 7.958878e-02 6.407100e-14 1 
    0.610636 8.031134e-02 6.461500e-14 1 
    0.610814 7.972516e-02 6.410600e-14 1 
    0.610991 8.047569e-02 6.467200e-14 1 
    0.611169 7.899609e-02 6.344600e-14 1 
    0.611347 7.944202e-02 6.376700e-14 1 
    0.611524 7.972862e-02 6.396000e-14 1 
    0.611702 8.049720e-02 6.453900e-14 1 
    0.611880 8.055528e-02 6.454800e-14 1 
    0.612057 7.989886e-02 6.398500e-14 1 
    0.612235 8.034518e-02 6.430500e-14 1 
    0.612412 7.916898e-02 6.332700e-14 1 
    0.612590 7.721233e-02 6.172600e-14 1 
    0.612768 7.785674e-02 6.220500e-14 1 
    0.612945 8.116531e-02 6.481100e-14 1 
    0.613123 8.028144e-02 6.406800e-14 1 
    0.613301 8.070419e-02 6.436800e-14 1 
    0.613478 8.016241e-02 6.389900e-14 1 
    0.613656 8.144912e-02 6.488700e-14 1 
    0.613834 8.171993e-02 6.506500e-14 1 
    0.614011 8.041612e-02 6.399000e-14 1 
    0.614189 7.972842e-02 6.340600e-14 1 
    0.614367 7.949784e-02 6.318600e-14 1 
    0.614544 7.919621e-02 6.291000e-14 1 
    0.614722 7.883525e-02 6.258700e-14 1 
    0.614899 7.843197e-02 6.223100e-14 1 
    0.615077 8.021387e-02 6.360800e-14 1 
    0.615255 8.040414e-02 6.372200e-14 1 
    0.615432 8.174954e-02 6.475100e-14 1 
    0.615610 7.974912e-02 6.313000e-14 1 
    0.615788 7.950325e-02 6.289900e-14 1 
    0.615965 7.892926e-02 6.240900e-14 1 
    0.616143 7.812578e-02 6.173800e-14 1 
    0.616321 7.886225e-02 6.228400e-14 1 
    0.616498 7.921541e-02 6.252700e-14 1 
    0.616676 8.160247e-02 6.437400e-14 1 
    0.616854 8.249305e-02 6.503900e-14 1 
    0.617031 8.221932e-02 6.478600e-14 1 
    0.617209 8.211438e-02 6.466600e-14 1 
    0.617386 8.226948e-02 6.475100e-14 1 
    0.617564 8.266526e-02 6.502500e-14 1 
    0.617742 8.076673e-02 6.349500e-14 1 
    0.617919 7.986992e-02 6.275400e-14 1 
    0.618097 7.900669e-02 6.204000e-14 1 
    0.618275 7.594184e-02 5.959900e-14 1 
    0.618452 7.279797e-02 5.709900e-14 1 
    0.618630 7.245207e-02 5.679500e-14 1 
    0.618808 7.331451e-02 5.743800e-14 1 
    0.618985 7.389285e-02 5.785800e-14 1 
    0.619163 7.441327e-02 5.823200e-14 1 
    0.619340 7.467703e-02 5.840500e-14 1 
    0.619518 7.481719e-02 5.848100e-14 1 
    0.619696 7.531846e-02 5.883900e-14 1 
    0.619873 7.767206e-02 6.064300e-14 1 
    0.620051 7.790122e-02 6.078700e-14 1 
    0.620229 7.905513e-02 6.165200e-14 1 
    0.620406 7.914644e-02 6.168800e-14 1 
    0.620584 7.885038e-02 6.142200e-14 1 
    0.620762 7.893159e-02 6.145000e-14 1 
    0.620939 7.804612e-02 6.072600e-14 1 
    0.621117 7.809987e-02 6.073300e-14 1 
    0.621294 7.663124e-02 5.955700e-14 1 
    0.621472 7.532594e-02 5.850900e-14 1 
    0.621650 7.670750e-02 5.954800e-14 1 
    0.621827 7.718167e-02 5.988200e-14 1 
    0.622005 7.909583e-02 6.133200e-14 1 
    0.622183 8.070762e-02 6.254600e-14 1 
    0.622360 8.014286e-02 6.207300e-14 1 
    0.622538 8.023262e-02 6.210700e-14 1 
    0.622716 8.065337e-02 6.239700e-14 1 
    0.622893 8.158904e-02 6.308500e-14 1 
    0.623071 8.204330e-02 6.340000e-14 1 
    0.623249 7.960417e-02 6.148000e-14 1 
    0.623426 7.793409e-02 6.015600e-14 1 
    0.623604 7.815360e-02 6.029100e-14 1 
    0.623781 7.687244e-02 5.926900e-14 1 
    0.623959 7.562505e-02 5.827400e-14 1 
    0.624137 7.640965e-02 5.884500e-14 1 
    0.624314 7.586703e-02 5.839400e-14 1 
    0.624492 7.707637e-02 5.929100e-14 1 
    0.624670 7.709301e-02 5.927000e-14 1 
    0.624847 7.558018e-02 5.807400e-14 1 
    0.625025 7.531071e-02 5.783400e-14 1 
    0.625203 7.608847e-02 5.839800e-14 1 
    0.625380 7.597250e-02 5.827600e-14 1 
    0.625558 7.481048e-02 5.735200e-14 1 
    0.625735 7.521305e-02 5.762800e-14 1 
    0.625913 7.655650e-02 5.862400e-14 1 
    0.626091 7.663926e-02 5.865400e-14 1 
    0.626268 7.609037e-02 5.820100e-14 1 
    0.626446 7.517346e-02 5.746700e-14 1 
    0.626624 7.431962e-02 5.678200e-14 1 
    0.626801 7.460388e-02 5.696700e-14 1 
    0.626979 7.440779e-02 5.678500e-14 1 
    0.627157 7.490891e-02 5.713500e-14 1 
    0.627334 7.453142e-02 5.681500e-14 1 
    0.627512 7.316009e-02 5.573800e-14 1 
    0.627690 7.121849e-02 5.422800e-14 1 
    0.627867 6.881714e-02 5.237000e-14 1 
    0.628045 6.844596e-02 5.205800e-14 1 
    0.628222 6.891472e-02 5.238500e-14 1 
    0.628400 7.141392e-02 5.425400e-14 1 
    0.628578 7.421883e-02 5.635300e-14 1 
    0.628755 7.425404e-02 5.634800e-14 1 
    0.628933 7.453607e-02 5.653000e-14 1 
    0.629111 7.610334e-02 5.768600e-14 1 
    0.629288 7.731570e-02 5.857200e-14 1 
    0.629466 7.676775e-02 5.812400e-14 1 
    0.629644 7.597862e-02 5.749400e-14 1 
    0.629821 7.699055e-02 5.822700e-14 1 
    0.629999 7.734498e-02 5.846200e-14 1 
    0.630176 7.758303e-02 5.860900e-14 1 
    0.630354 7.944671e-02 5.998300e-14 1 
    0.630532 7.814912e-02 5.897000e-14 1 
    0.630709 7.794637e-02 5.878400e-14 1 
    0.630887 8.026174e-02 6.049600e-14 1 
    0.631065 7.970038e-02 6.003900e-14 1 
    0.631242 8.071336e-02 6.076800e-14 1 
    0.631420 8.006517e-02 6.024600e-14 1 
    0.631598 7.946407e-02 5.976000e-14 1 
    0.631775 7.956317e-02 5.980100e-14 1 
    0.631953 7.900096e-02 5.934500e-14 1 
    0.632131 7.902417e-02 5.932900e-14 1 
    0.632308 7.792497e-02 5.847100e-14 1 
    0.632486 7.737679e-02 5.802700e-14 1 
    0.632663 7.837272e-02 5.874100e-14 1 
    0.632841 7.719535e-02 5.782600e-14 1 
    0.633019 8.025481e-02 6.008400e-14 1 
    0.633196 8.192483e-02 6.130000e-14 1 
    0.633374 8.151358e-02 6.095800e-14 1 
    0.633552 8.060543e-02 6.024500e-14 1 
    0.633729 7.982583e-02 5.962900e-14 1 
    0.633907 7.914870e-02 5.909000e-14 1 
    0.634085 7.770821e-02 5.798200e-14 1 
    0.634262 7.871038e-02 5.869700e-14 1 
    0.634440 7.971926e-02 5.941600e-14 1 
    0.634617 7.936235e-02 5.911700e-14 1 
    0.634795 8.124574e-02 6.048600e-14 1 
    0.634973 8.179396e-02 6.086000e-14 1 
    0.635150 8.359576e-02 6.216600e-14 1 
    0.635328 8.166074e-02 6.069300e-14 1 
    0.635506 8.279292e-02 6.150000e-14 1 
    0.635683 8.430321e-02 6.258700e-14 1 
    0.635861 8.339488e-02 6.187800e-14 1 
    0.636039 8.222929e-02 6.097900e-14 1 
    0.636216 8.081384e-02 5.989600e-14 1 
    0.636394 8.095491e-02 5.996700e-14 1 
    0.636572 8.144325e-02 6.029500e-14 1 
    0.636749 8.104391e-02 5.996600e-14 1 
    0.636927 8.201687e-02 6.065200e-14 1 
    0.637104 8.158215e-02 6.029700e-14 1 
    0.637282 8.299910e-02 6.131000e-14 1 
    0.637460 8.290730e-02 6.120800e-14 1 
    0.637637 8.365539e-02 6.172600e-14 1 
    0.637815 8.328173e-02 6.141600e-14 1 
    0.637993 8.251687e-02 6.081800e-14 1 
    0.638170 8.122005e-02 5.982900e-14 1 
    0.638348 7.891960e-02 5.810200e-14 1 
    0.638526 7.866054e-02 5.787900e-14 1 
    0.638703 7.827173e-02 5.756100e-14 1 
    0.638881 7.906368e-02 5.811100e-14 1 
    0.639058 8.218408e-02 6.037100e-14 1 
    0.639236 8.283325e-02 6.081400e-14 1 
    0.639414 8.467698e-02 6.213300e-14 1 
    0.639591 8.556794e-02 6.275200e-14 1 
    0.639769 8.509711e-02 6.237200e-14 1 
    0.639947 8.701330e-02 6.374100e-14 1 
    0.640124 8.741383e-02 6.399900e-14 1 
    0.640302 8.622156e-02 6.309100e-14 1 
    0.640480 8.634197e-02 6.314400e-14 1 
    0.640657 8.687402e-02 6.349800e-14 1 
    0.640835 8.572315e-02 6.262200e-14 1 
    0.641012 8.553357e-02 6.244900e-14 1 
    0.641190 8.609223e-02 6.282200e-14 1 
    0.641368 8.736725e-02 6.371700e-14 1 
    0.641545 8.504889e-02 6.199200e-14 1 
    0.641723 8.398421e-02 6.118200e-14 1 
    0.641901 8.644945e-02 6.294300e-14 1 
    0.642078 8.522736e-02 6.201900e-14 1 
    0.642256 8.433414e-02 6.133500e-14 1 
    0.642434 8.441667e-02 6.136100e-14 1 
    0.642611 8.531386e-02 6.197900e-14 1 
    0.642789 8.647396e-02 6.278700e-14 1 
    0.642967 8.674510e-02 6.294900e-14 1 
    0.643144 8.510386e-02 6.172400e-14 1 
    0.643322 8.509856e-02 6.168600e-14 1 
    0.643500 8.570467e-02 6.209100e-14 1 
    0.643677 8.554605e-02 6.194200e-14 1 
    0.643855 8.665599e-02 6.271100e-14 1 
    0.644032 8.728295e-02 6.313000e-14 1 
    0.644210 8.648459e-02 6.251800e-14 1 
    0.644388 8.564794e-02 6.187900e-14 1 
    0.644565 8.373123e-02 6.046100e-14 1 
    0.644743 8.562179e-02 6.179200e-14 1 
    0.644921 8.770709e-02 6.326200e-14 1 
    0.645098 8.840998e-02 6.373400e-14 1 
    0.645276 8.757882e-02 6.310000e-14 1 
    0.645454 8.711194e-02 6.272900e-14 1 
    0.645631 8.569245e-02 6.167300e-14 1 
    0.645809 8.571051e-02 6.165200e-14 1 
    0.645986 8.590912e-02 6.176100e-14 1 
    0.646164 8.540116e-02 6.136200e-14 1 
    0.646342 8.693126e-02 6.242700e-14 1 
    0.646519 8.610389e-02 6.179900e-14 1 
    0.646697 8.692920e-02 6.235700e-14 1 
    0.646875 8.743177e-02 6.268300e-14 1 
    0.647052 8.633384e-02 6.186200e-14 1 
    0.647230 8.549465e-02 6.122700e-14 1 
    0.647408 8.407193e-02 6.017500e-14 1 
    0.647585 8.265291e-02 5.912700e-14 1 
    0.647763 8.346621e-02 5.967600e-14 1 
    0.647941 8.372621e-02 5.982900e-14 1 
    0.648118 8.353253e-02 5.965800e-14 1 
    0.648296 8.571487e-02 6.118300e-14 1 
    0.648473 8.672327e-02 6.186900e-14 1 
    0.648651 8.561102e-02 6.104200e-14 1 
    0.648829 8.621792e-02 6.144100e-14 1 
    0.649006 8.696137e-02 6.193700e-14 1 
    0.649184 8.599339e-02 6.121400e-14 1 
    0.649362 8.681081e-02 6.176200e-14 1 
    0.649539 8.856544e-02 6.297600e-14 1 
    0.649717 8.833678e-02 6.277900e-14 1 
    0.649895 8.785725e-02 6.240400e-14 1 
    0.650072 8.832347e-02 6.270100e-14 1 
    0.650250 9.090880e-02 6.450100e-14 1 
    0.650427 9.078343e-02 6.437700e-14 1 
    0.650605 8.748633e-02 6.200500e-14 1 
    0.650783 8.804527e-02 6.236700e-14 1 
    0.650960 8.785586e-02 6.219900e-14 1 
    0.651138 8.742340e-02 6.185900e-14 1 
    0.651316 8.687732e-02 6.143900e-14 1 
    0.651493 8.595680e-02 6.075500e-14 1 
    0.651671 8.368647e-02 5.911800e-14 1 
    0.651849 8.123516e-02 5.735500e-14 1 
    0.652026 8.010306e-02 5.652500e-14 1 
    0.652204 8.052964e-02 5.679500e-14 1 
    0.652381 8.146428e-02 5.742300e-14 1 
    0.652559 8.423264e-02 5.934200e-14 1 
    0.652737 8.557954e-02 6.025800e-14 1 
    0.652914 8.559895e-02 6.023900e-14 1 
    0.653092 8.760197e-02 6.161500e-14 1 
    0.653270 8.944073e-02 6.287400e-14 1 
    0.653447 9.023786e-02 6.340000e-14 1 
    0.653625 8.935851e-02 6.274800e-14 1 
    0.653803 9.046016e-02 6.348700e-14 1 
    0.653980 8.932159e-02 6.265400e-14 1 
    0.654158 8.760719e-02 6.141800e-14 1 
    0.654336 8.923333e-02 6.252400e-14 1 
    0.654513 9.005129e-02 6.306300e-14 1 
    0.654691 8.959308e-02 6.270800e-14 1 
    0.654868 8.919838e-02 6.239800e-14 1 
    0.655046 9.113628e-02 6.371900e-14 1 
    0.655224 9.133609e-02 6.382400e-14 1 
    0.655401 8.890405e-02 6.209100e-14 1 
    0.655579 8.892371e-02 6.207100e-14 1 
    0.655757 8.929307e-02 6.229500e-14 1 
    0.655934 9.033947e-02 6.299100e-14 1 
    0.656112 9.062528e-02 6.315600e-14 1 
    0.656290 9.110373e-02 6.345500e-14 1 
    0.656467 9.227909e-02 6.423900e-14 1 
    0.656645 9.170105e-02 6.380200e-14 1 
    0.656822 9.147296e-02 6.360900e-14 1 
    0.657000 9.130959e-02 6.346100e-14 1 
    0.657178 8.970208e-02 6.231000e-14 1 
    0.657355 8.845261e-02 6.140900e-14 1 
    0.657533 8.839388e-02 6.133500e-14 1 
    0.657711 8.919444e-02 6.185700e-14 1 
    0.657888 8.744338e-02 6.061000e-14 1 
    0.658066 8.534856e-02 5.912600e-14 1 
    0.658244 8.342762e-02 5.776400e-14 1 
    0.658421 8.019365e-02 5.549500e-14 1 
    0.658599 7.901672e-02 5.465100e-14 1 
    0.658777 7.765766e-02 5.368200e-14 1 
    0.658954 7.670359e-02 5.299400e-14 1 
    0.659132 7.923011e-02 5.471000e-14 1 
    0.659309 8.239952e-02 5.686800e-14 1 
    0.659487 8.519999e-02 5.876900e-14 1 
    0.659665 8.539249e-02 5.887000e-14 1 
    0.659842 8.573293e-02 5.907300e-14 1 
    0.660020 8.682325e-02 5.979200e-14 1 
    0.660198 8.854379e-02 6.094400e-14 1 
    0.660375 9.033566e-02 6.214400e-14 1 
    0.660553 9.162935e-02 6.300000e-14 1 
    0.660731 9.188247e-02 6.314000e-14 1 
    0.660908 9.141920e-02 6.278800e-14 1 
    0.661086 9.059146e-02 6.218600e-14 1 
    0.661263 9.134544e-02 6.267000e-14 1 
    0.661441 8.998878e-02 6.170600e-14 1 
    0.661619 8.894870e-02 6.096000e-14 1 
    0.661796 8.835102e-02 6.051800e-14 1 
    0.661974 8.724608e-02 5.972900e-14 1 
    0.662152 8.750052e-02 5.987100e-14 1 
    0.662329 8.916603e-02 6.097800e-14 1 
    0.662507 9.012691e-02 6.160200e-14 1 
    0.662685 8.999383e-02 6.147800e-14 1 
    0.662862 9.064680e-02 6.189100e-14 1 
    0.663040 9.073506e-02 6.191800e-14 1 
    0.663218 9.024423e-02 6.155000e-14 1 
    0.663395 8.893985e-02 6.062800e-14 1 
    0.663573 9.060506e-02 6.173000e-14 1 
    0.663750 9.104550e-02 6.199700e-14 1 
    0.663928 9.174672e-02 6.244100e-14 1 
    0.664106 9.195911e-02 6.255200e-14 1 
    0.664283 9.300394e-02 6.322900e-14 1 
    0.664461 9.340699e-02 6.346900e-14 1 
    0.664639 9.194333e-02 6.244100e-14 1 
    0.664816 9.258899e-02 6.284600e-14 1 
    0.664994 9.161557e-02 6.215200e-14 1 
    0.665172 9.048918e-02 6.135500e-14 1 
    0.665349 8.992496e-02 6.094000e-14 1 
    0.665527 9.002180e-02 6.097300e-14 1 
    0.665704 8.862941e-02 5.999800e-14 1 
    0.665882 8.989912e-02 6.082500e-14 1 
    0.666060 8.970467e-02 6.066100e-14 1 
    0.666237 9.028352e-02 6.102000e-14 1 
    0.666415 9.230064e-02 6.235000e-14 1 
    0.666593 9.072366e-02 6.125200e-14 1 
    0.666770 9.149058e-02 6.173700e-14 1 
    0.666948 9.255214e-02 6.242000e-14 1 
    0.667126 9.285671e-02 6.259200e-14 1 
    0.667303 9.243992e-02 6.227800e-14 1 
    0.667481 9.226202e-02 6.212500e-14 1 
    0.667658 9.122626e-02 6.139500e-14 1 
    0.667836 9.080511e-02 6.107900e-14 1 
    0.668014 9.059917e-02 6.090800e-14 1 
    0.668191 9.015457e-02 6.057700e-14 1 
    0.668369 9.140129e-02 6.138200e-14 1 
    0.668547 9.001676e-02 6.042000e-14 1 
    0.668724 8.893602e-02 5.966300e-14 1 
    0.668902 8.938456e-02 5.993200e-14 1 
    0.669080 8.956643e-02 6.002200e-14 1 
    0.669257 9.000649e-02 6.028500e-14 1 
    0.669435 9.151683e-02 6.126400e-14 1 
    0.669613 9.210505e-02 6.162500e-14 1 
    0.669790 9.139109e-02 6.111500e-14 1 
    0.669968 9.263364e-02 6.191300e-14 1 
    0.670145 9.118860e-02 6.091500e-14 1 
    0.670323 9.042376e-02 6.037200e-14 1 
    0.670501 8.920848e-02 5.952900e-14 1 
    0.670678 8.857039e-02 5.907200e-14 1 
    0.670856 9.021959e-02 6.014000e-14 1 
    0.671034 9.038753e-02 6.022000e-14 1 
    0.671211 8.929389e-02 5.946000e-14 1 
    0.671389 8.993327e-02 5.985400e-14 1 
    0.671567 9.199093e-02 6.119100e-14 1 
    0.671744 9.172807e-02 6.098400e-14 1 
    0.671922 9.066004e-02 6.024200e-14 1 
    0.672100 9.340934e-02 6.203600e-14 1 
    0.672277 9.113248e-02 6.049200e-14 1 
    0.672455 8.997791e-02 5.969400e-14 1 
    0.672632 9.118501e-02 6.046300e-14 1 
    0.672810 9.054372e-02 6.000600e-14 1 
    0.672988 9.120759e-02 6.041400e-14 1 
    0.673165 9.199420e-02 6.090300e-14 1 
    0.673343 9.196881e-02 6.085400e-14 1 
    0.673521 9.053104e-02 5.987100e-14 1 
    0.673698 8.967241e-02 5.927200e-14 1 
    0.673876 9.017088e-02 5.957000e-14 1 
    0.674054 8.789529e-02 5.803600e-14 1 
    0.674231 8.932492e-02 5.894900e-14 1 
    0.674409 8.677047e-02 5.723300e-14 1 
    0.674587 8.816783e-02 5.812400e-14 1 
    0.674764 9.086552e-02 5.987100e-14 1 
    0.674942 8.991884e-02 5.921600e-14 1 
    0.675119 9.064513e-02 5.966300e-14 1 
    0.675297 9.061237e-02 5.961000e-14 1 
    0.675475 9.003659e-02 5.920000e-14 1 
    0.675652 9.236478e-02 6.069900e-14 1 
    0.675830 9.159587e-02 6.016200e-14 1 
    0.676008 9.184217e-02 6.029200e-14 1 
    0.676185 9.193446e-02 6.032100e-14 1 
    0.676363 9.260350e-02 6.072800e-14 1 
    0.676540 9.147261e-02 5.995500e-14 1 
    0.676718 9.121241e-02 5.975300e-14 1 
    0.676896 9.012103e-02 5.900700e-14 1 
    0.677073 9.015747e-02 5.900000e-14 1 
    0.677251 9.079504e-02 5.938600e-14 1 
    0.677429 8.915093e-02 5.828000e-14 1 
    0.677606 9.156061e-02 5.982400e-14 1 
    0.677784 9.002535e-02 5.879000e-14 1 
    0.677962 9.007724e-02 5.879300e-14 1 
    0.678139 9.218451e-02 6.013700e-14 1 
    0.678317 9.179427e-02 5.985100e-14 1 
    0.678495 9.219386e-02 6.008000e-14 1 
    0.678672 9.401065e-02 6.123200e-14 1 
    0.678850 9.317517e-02 6.065600e-14 1 
    0.679027 9.195426e-02 5.983000e-14 1 
    0.679205 9.248224e-02 6.014200e-14 1 
    0.679383 9.163838e-02 5.956200e-14 1 
    0.679560 9.129206e-02 5.930600e-14 1 
    0.679738 9.392578e-02 6.098500e-14 1 
    0.679916 9.563460e-02 6.206200e-14 1 
    0.680093 9.411181e-02 6.104200e-14 1 
    0.680271 9.438937e-02 6.119000e-14 1 
    0.680449 9.619360e-02 6.232700e-14 1 
    0.680626 9.432422e-02 6.108400e-14 1 
    0.680804 9.429478e-02 6.103300e-14 1 
    0.680982 9.300544e-02 6.016700e-14 1 
    0.681159 9.142987e-02 5.911700e-14 1 
    0.681337 9.378794e-02 6.061000e-14 1 
    0.681514 9.295885e-02 6.004300e-14 1 
    0.681692 9.262324e-02 5.979500e-14 1 
    0.681870 9.485843e-02 6.120600e-14 1 
    0.682047 9.387031e-02 6.053700e-14 1 
    0.682225 9.286278e-02 5.985600e-14 1 
    0.682403 9.306336e-02 5.995400e-14 1 
    0.682580 9.482466e-02 6.105700e-14 1 
    0.682758 9.350051e-02 6.017300e-14 1 
    0.682936 9.422244e-02 6.060600e-14 1 
    0.683113 9.569455e-02 6.152100e-14 1 
    0.683291 9.683851e-02 6.222400e-14 1 
    0.683469 9.583792e-02 6.154900e-14 1 
    0.683646 9.596702e-02 6.160000e-14 1 
    0.683824 9.617132e-02 6.169900e-14 1 
    0.684001 9.685583e-02 6.210600e-14 1 
    0.684179 9.699675e-02 6.216400e-14 1 
    0.684357 9.717523e-02 6.224600e-14 1 
    0.684534 9.683502e-02 6.199600e-14 1 
    0.684712 9.701510e-02 6.207900e-14 1 
    0.684890 9.593195e-02 6.135400e-14 1 
    0.685067 9.775243e-02 6.248600e-14 1 
    0.685245 9.783298e-02 6.250500e-14 1 
    0.685423 9.607506e-02 6.135000e-14 1 
    0.685600 9.582385e-02 6.115800e-14 1 
    0.685778 9.782689e-02 6.240400e-14 1 
    0.685955 9.802954e-02 6.250100e-14 1 
    0.686133 9.453703e-02 6.024300e-14 1 
    0.686311 9.398788e-02 5.986200e-14 1 
    0.686488 8.745750e-02 5.567400e-14 1 
    0.686666 7.794221e-02 4.959100e-14 1 
    0.686844 6.958382e-02 4.425000e-14 1 
    0.687021 6.380939e-02 4.055700e-14 1 
    0.687199 6.511752e-02 4.136700e-14 1 
    0.687377 7.009032e-02 4.450300e-14 1 
    0.687554 7.372075e-02 4.678400e-14 1 
    0.687732 7.746547e-02 4.913500e-14 1 
    0.687909 8.355150e-02 5.296800e-14 1 
    0.688087 8.616251e-02 5.459500e-14 1 
    0.688265 8.673132e-02 5.492700e-14 1 
    0.688442 8.570164e-02 5.424700e-14 1 
    0.688620 8.410209e-02 5.320700e-14 1 
    0.688798 8.205961e-02 5.188800e-14 1 
    0.688975 8.235021e-02 5.204500e-14 1 
    0.689153 8.277903e-02 5.228900e-14 1 
    0.689331 8.370247e-02 5.284500e-14 1 
    0.689508 8.643001e-02 5.453900e-14 1 
    0.689686 8.668710e-02 5.467300e-14 1 
    0.689864 8.740131e-02 5.509500e-14 1 
    0.690041 8.901113e-02 5.608100e-14 1 
    0.690219 8.830593e-02 5.560800e-14 1 
    0.690396 9.040398e-02 5.690000e-14 1 
    0.690574 8.846355e-02 5.565000e-14 1 
    0.690752 8.800180e-02 5.533100e-14 1 
    0.690929 8.980050e-02 5.643300e-14 1 
    0.691107 9.232567e-02 5.799000e-14 1 
    0.691285 9.318880e-02 5.850200e-14 1 
    0.691462 9.412742e-02 5.906100e-14 1 
    0.691640 9.329411e-02 5.850800e-14 1 
    0.691818 9.559161e-02 5.991800e-14 1 
    0.691995 9.526703e-02 5.968400e-14 1 
    0.692173 9.628542e-02 6.029100e-14 1 
    0.692350 9.693066e-02 6.066400e-14 1 
    0.692528 9.727946e-02 6.085100e-14 1 
    0.692706 9.703837e-02 6.066900e-14 1 
    0.692883 9.643985e-02 6.026400e-14 1 
    0.693061 9.668313e-02 6.038500e-14 1 
    0.693239 9.622019e-02 6.006500e-14 1 
    0.693416 9.627734e-02 6.007000e-14 1 
    0.693594 9.522351e-02 5.938200e-14 1 
    0.693772 9.411885e-02 5.866300e-14 1 
    0.693949 9.237706e-02 5.754800e-14 1 
    0.694127 9.118780e-02 5.677800e-14 1 
    0.694305 9.302139e-02 5.789000e-14 1 
    0.694482 9.297398e-02 5.783100e-14 1 
    0.694660 9.348168e-02 5.811700e-14 1 
    0.694837 9.584998e-02 5.955900e-14 1 
    0.695015 9.607299e-02 5.966700e-14 1 
    0.695193 9.632841e-02 5.979500e-14 1 
    0.695370 9.730749e-02 6.037200e-14 1 
    0.695548 9.620589e-02 5.965800e-14 1 
    0.695726 9.532740e-02 5.908300e-14 1 
    0.695903 9.574396e-02 5.931100e-14 1 
    0.696081 9.779083e-02 6.054800e-14 1 
    0.696259 9.850014e-02 6.095600e-14 1 
    0.696436 9.858903e-02 6.098000e-14 1 
    0.696614 9.953881e-02 6.153600e-14 1 
    0.696791 1.034282e-01 6.390800e-14 1 
    0.696969 1.012919e-01 6.255600e-14 1 
    0.697147 1.006891e-01 6.215200e-14 1 
    0.697324 1.017890e-01 6.279900e-14 1 
    0.697502 9.973435e-02 6.150000e-14 1 
    0.697680 1.008837e-01 6.217700e-14 1 
    0.697857 1.007206e-01 6.204500e-14 1 
    0.698035 1.016572e-01 6.259000e-14 1 
    0.698213 9.962253e-02 6.130600e-14 1 
    0.698390 9.869105e-02 6.070200e-14 1 
    0.698568 9.813300e-02 6.032800e-14 1 
    0.698746 9.845480e-02 6.049500e-14 1 
    0.698923 9.788593e-02 6.011500e-14 1 
    0.699101 9.846852e-02 6.044200e-14 1 
    0.699278 9.960231e-02 6.110700e-14 1 
    0.699456 1.000966e-01 6.137900e-14 1 
    0.699634 9.987833e-02 6.121400e-14 1 
    0.699811 1.002619e-01 6.141800e-14 1 
    0.699989 9.958284e-02 6.097100e-14 1 
    0.700167 9.831802e-02 6.016600e-14 1 
    0.700344 9.728868e-02 5.950600e-14 1 
    0.700522 9.756225e-02 5.964300e-14 1 
    0.700700 9.731233e-02 5.946000e-14 1 
    0.700877 9.694069e-02 5.920300e-14 1 
    0.701055 9.860688e-02 6.019000e-14 1 
    0.701233 1.002059e-01 6.113500e-14 1 
    0.701410 1.011125e-01 6.165700e-14 1 
    0.701588 9.904730e-02 6.036700e-14 1 
    0.701765 9.951425e-02 6.062100e-14 1 
    0.701943 1.009033e-01 6.143600e-14 1 
    0.702121 1.011007e-01 6.152500e-14 1 
    0.702298 1.012520e-01 6.158600e-14 1 
    0.702476 9.993311e-02 6.075300e-14 1 
    0.702654 9.924484e-02 6.030400e-14 1 
    0.702831 9.894906e-02 6.009400e-14 1 
    0.703009 9.959719e-02 6.045700e-14 1 
    0.703187 1.039644e-01 6.307600e-14 1 
    0.703364 1.033027e-01 6.264300e-14 1 
    0.703542 1.020020e-01 6.182300e-14 1 
    0.703719 1.007906e-01 6.105800e-14 1 
    0.703897 1.001050e-01 6.061200e-14 1 
    0.704075 9.923851e-02 6.005700e-14 1 
    0.704252 9.912805e-02 5.996000e-14 1 
    0.704430 1.007661e-01 6.092000e-14 1 
    0.704608 1.017785e-01 6.150100e-14 1 
    0.704785 9.676474e-02 5.844200e-14 1 
    0.706318 1.014350e-01 6.099700e-14 0 
    0.707946 1.052277e-01 6.298700e-14 0 
    0.709578 9.751302e-02 5.810100e-14 0 
    0.711214 1.020941e-01 6.055100e-14 0 
    0.712853 9.614713e-02 5.676200e-14 0 
    0.714496 9.635433e-02 5.662300e-14 0 
    0.716143 9.567761e-02 5.596700e-14 0 
    0.717794 9.721670e-02 5.660600e-14 0 
    0.719449 9.787601e-02 5.672800e-14 0 
    0.721108 9.607633e-02 5.542900e-14 0 
    0.722770 9.344281e-02 5.366200e-14 0 
    0.724436 9.451083e-02 5.402600e-14 0 
    0.726106 1.026640e-01 5.841700e-14 0 
    0.727780 1.017078e-01 5.760700e-14 0 
    0.729457 1.052651e-01 5.934800e-14 0 
    0.731139 1.026167e-01 5.758900e-14 0 
    0.732825 9.934743e-02 5.549800e-14 0 
    0.734514 1.049762e-01 5.837300e-14 0 
    0.736207 1.056865e-01 5.849800e-14 0 
    0.737904 1.116756e-01 6.152900e-14 0 
    0.739605 1.119157e-01 6.137800e-14 0 
    0.741310 1.145041e-01 6.250900e-14 0 
    0.743019 1.134372e-01 6.164200e-14 0 
    0.744732 1.126389e-01 6.092700e-14 0 
    0.746449 1.192954e-01 6.423100e-14 0 
    0.748170 1.144351e-01 6.133100e-14 0 
    0.749894 1.125863e-01 6.006300e-14 0 
    0.751623 1.189645e-01 6.317400e-14 0 
    0.753356 1.173154e-01 6.201200e-14 0 
    0.755092 1.205821e-01 6.344600e-14 0 
    0.756833 1.197335e-01 6.271000e-14 0 
    0.758578 1.230695e-01 6.416100e-14 0 
    0.760326 1.210821e-01 6.283500e-14 0 
    0.762079 1.213410e-01 6.268000e-14 0 
    0.763836 1.207654e-01 6.209600e-14 0 
    0.765597 1.139923e-01 5.834400e-14 0 
    0.767361 1.207265e-01 6.150700e-14 0 
    0.769130 1.168786e-01 5.927300e-14 0 
    0.770904 1.184862e-01 5.981200e-14 0 
    0.772681 1.179226e-01 5.925400e-14 0 
    0.774462 1.179030e-01 5.897200e-14 0 
    0.776247 1.159987e-01 5.775300e-14 0 
    0.778037 1.151824e-01 5.708300e-14 0 
    0.779830 1.170335e-01 5.773400e-14 0 
    0.781628 1.175555e-01 5.772500e-14 0 
    0.783430 1.180797e-01 5.771600e-14 0 
    0.785236 1.216481e-01 5.918700e-14 0 
    0.787046 1.161535e-01 5.625400e-14 0 
    0.788860 1.199380e-01 5.782000e-14 0 
    0.790679 1.229945e-01 5.902100e-14 0 
    0.792501 1.235432e-01 5.901200e-14 0 
    0.794328 1.218273e-01 5.792500e-14 0 
    0.796159 1.201351e-01 5.685800e-14 0 
    0.797995 1.181957e-01 5.568300e-14 0 
    0.799834 1.206496e-01 5.657800e-14 0 
    0.801678 1.228733e-01 5.735600e-14 0 
    0.803526 1.208880e-01 5.617000e-14 0 
    0.805378 1.277354e-01 5.907900e-14 0 
    0.807235 1.294894e-01 5.961500e-14 0 
    0.809096 1.285771e-01 5.892300e-14 0 
    0.810961 1.244771e-01 5.678200e-14 0 
    0.812831 1.279434e-01 5.809500e-14 0 
    0.814704 1.282152e-01 5.795100e-14 0 
    0.816582 1.305784e-01 5.874800e-14 0 
    0.818465 1.284683e-01 5.753300e-14 0 
    0.820352 1.201489e-01 5.356000e-14 0 
    0.822243 1.263713e-01 5.607500e-14 0 
    0.824138 1.260579e-01 5.567900e-14 0 
    0.826038 1.301652e-01 5.722900e-14 0 
    0.827942 1.353382e-01 5.923000e-14 0 
    0.829851 1.298202e-01 5.655400e-14 0 
    0.831764 1.283140e-01 5.564100e-14 0 
    0.833681 1.297749e-01 5.601600e-14 0 
    0.835603 1.330808e-01 5.717900e-14 0 
    0.837529 1.279500e-01 5.472200e-14 0 
    0.839460 1.345752e-01 5.729100e-14 0 
    0.841395 1.339339e-01 5.675600e-14 0 
    0.843335 1.336015e-01 5.635500e-14 0 
    0.845279 1.329654e-01 5.582900e-14 0 
    0.847227 1.392065e-01 5.818100e-14 0 
    0.849180 1.323062e-01 5.504300e-14 0 
    0.851138 1.263295e-01 5.231500e-14 0 
    0.853100 1.350298e-01 5.566100e-14 0 
    0.855067 1.356288e-01 5.565100e-14 0 
    0.857038 1.325161e-01 5.412400e-14 0 
    0.859014 1.200030e-01 4.878800e-14 0 
    0.860994 1.364951e-01 5.523800e-14 0 
    0.862979 1.364698e-01 5.497400e-14 0 
    0.864968 1.361320e-01 5.458600e-14 0 
    0.866962 1.383187e-01 5.520800e-14 0 
    0.868960 1.357680e-01 5.394100e-14 0 
    0.870964 1.221007e-01 4.828800e-14 0 
    0.872971 1.329344e-01 5.233100e-14 0 
    0.874984 1.388563e-01 5.441100e-14 0 
    0.877001 1.417380e-01 5.528500e-14 0 
    0.879023 1.423640e-01 5.527400e-14 0 
    0.881049 1.413572e-01 5.463100e-14 0 
    0.883080 1.459634e-01 5.615200e-14 0 
    0.885116 1.262289e-01 4.833700e-14 0 
    0.887156 1.449030e-01 5.523300e-14 0 
    0.889201 1.458802e-01 5.535000e-14 0 
    0.891251 1.333280e-01 5.035500e-14 0 
    0.893305 1.395851e-01 5.247600e-14 0 
    0.895365 1.414989e-01 5.295100e-14 0 
    0.897429 1.398540e-01 5.209500e-14 0 
    0.899498 1.391835e-01 5.160700e-14 0 
    0.901571 1.341251e-01 4.950300e-14 0 
    0.903650 1.222997e-01 4.493100e-14 0 
    0.905733 1.331514e-01 4.869300e-14 0 
    0.907820 1.510973e-01 5.500200e-14 0 
    0.909913 1.545877e-01 5.601400e-14 0 
    0.912011 1.506935e-01 5.435200e-14 0 
    0.914113 1.496258e-01 5.371900e-14 0 
    0.916220 1.348731e-01 4.820000e-14 0 
    0.918333 1.408764e-01 5.011400e-14 0 
    0.920450 1.478272e-01 5.234500e-14 0 
    0.922571 1.484809e-01 5.233500e-14 0 
    0.924698 1.498276e-01 5.256700e-14 0 
    0.926830 1.494541e-01 5.219500e-14 0 
    0.928966 1.456850e-01 5.064500e-14 0 
    0.931108 1.553567e-01 5.375900e-14 0 
    0.933254 1.400392e-01 4.823600e-14 0 
    0.935406 1.542276e-01 5.287900e-14 0 
    0.937562 1.556251e-01 5.311300e-14 0 
    0.939723 1.555927e-01 5.285800e-14 0 
    0.941890 1.562815e-01 5.284800e-14 0 
    0.944061 1.541062e-01 5.187300e-14 0 
    0.946237 1.587571e-01 5.319300e-14 0 
    0.948418 1.569082e-01 5.233200e-14 0 
    0.950605 1.612714e-01 5.354000e-14 0 
    0.952796 1.619824e-01 5.352900e-14 0 
    0.954993 1.593619e-01 5.242100e-14 0 
    0.957194 1.615449e-01 5.289500e-14 0 
    0.959401 1.592962e-01 5.191900e-14 0 
    0.961612 1.618529e-01 5.251000e-14 0 
    0.963829 1.652074e-01 5.335200e-14 0 
    0.966051 1.647941e-01 5.297400e-14 0 
    0.968278 1.624983e-01 5.199600e-14 0 
    0.970510 1.632169e-01 5.198600e-14 0 
    0.972747 1.662159e-01 5.269800e-14 0 
    0.974990 1.642805e-01 5.184500e-14 0 
    0.977237 1.631158e-01 5.124100e-14 0 
    0.979490 1.634563e-01 5.111200e-14 0 
    0.981748 1.649337e-01 5.133700e-14 0 
    0.984011 1.671957e-01 5.180200e-14 0 
    0.986279 1.663915e-01 5.131600e-14 0 
    0.988553 1.678958e-01 5.154200e-14 0 
    0.990832 1.674764e-01 5.117700e-14 0 
    0.993116 1.682132e-01 5.116600e-14 0 
    0.995405 1.666347e-01 5.045300e-14 0 
    0.997700 1.689170e-01 5.090900e-14 0 
    1.000000 1.700533e-01 5.101600e-14 0 
    1.002305 1.704095e-01 5.088800e-14 0 
    1.006931 1.719118e-01 5.086600e-14 0 
    1.011580 1.714427e-01 5.026200e-14 0 
    1.016249 1.749568e-01 5.082200e-14 0 
    1.020939 1.744803e-01 5.021900e-14 0 
    1.025652 1.764210e-01 5.031200e-14 0 
    1.030386 1.783860e-01 5.040600e-14 0 
    1.035142 1.787186e-01 5.003700e-14 0 
    1.054386 1.796370e-01 4.847500e-14 0 
    1.073990 1.785548e-01 4.644000e-14 0 
    1.093956 1.793793e-01 4.496700e-14 0 
    1.114294 1.777341e-01 4.294300e-14 0 
    1.135010 1.802044e-01 4.196500e-14 0 
    1.153453 1.848267e-01 4.167600e-14 0 
    1.174898 1.861082e-01 4.044700e-14 0 
    1.193988 1.852529e-01 3.898400e-14 0 
    1.213389 1.874009e-01 3.818500e-14 0 
    1.235947 1.913224e-01 3.757400e-14 0 
    1.256030 1.917639e-01 3.646600e-14 0 
    1.273503 1.926494e-01 3.563600e-14 0 
    1.294196 1.939863e-01 3.474500e-14 0 
    1.315225 1.966859e-01 3.411100e-14 0 
    1.336595 1.966862e-01 3.302900e-14 0 
    1.355189 1.985052e-01 3.242600e-14 0 
    1.374042 2.003410e-01 3.183400e-14 0 
    1.396368 1.989620e-01 3.061200e-14 0 
    1.415794 1.953292e-01 2.923400e-14 0 
    1.435490 1.975940e-01 2.876700e-14 0 
    1.455459 2.045348e-01 2.896600e-14 0 
    1.475707 2.026578e-01 2.791800e-14 0 
    1.496236 2.102683e-01 2.817700e-14 0 
    1.517051 2.171566e-01 2.830700e-14 0 
    1.534617 2.253076e-01 2.870100e-14 0 
    1.555965 2.289646e-01 2.837200e-14 0 
    1.577611 2.316130e-01 2.791800e-14 0 
    1.595879 2.289685e-01 2.697100e-14 0 
    1.618080 2.353834e-01 2.697100e-14 0 
    1.636817 2.386515e-01 2.672300e-14 0 
    1.655770 2.408656e-01 2.635700e-14 0 
    1.674943 2.430909e-01 2.599500e-14 0 
    1.698244 2.453446e-01 2.552100e-14 0 
    1.717909 2.447735e-01 2.488200e-14 0 
    1.737800 2.408611e-01 2.392700e-14 0 
    1.757923 2.381071e-01 2.311500e-14 0 
    1.778279 2.337554e-01 2.217600e-14 0 
    1.798871 2.300212e-01 2.132500e-14 0 
    1.815515 2.237499e-01 2.036500e-14 0 
    1.836538 2.222161e-01 1.976500e-14 0 
    1.857805 2.191664e-01 1.905000e-14 0 
    1.879318 2.141705e-01 1.819200e-14 0 
    1.896705 2.117243e-01 1.765600e-14 0 
    1.918669 2.127050e-01 1.733400e-14 0 
    1.936423 2.088227e-01 1.670700e-14 0 
    1.958844 2.050018e-01 1.602800e-14 0 
    1.976970 2.017261e-01 1.548400e-14 0 
    1.999862 1.994258e-01 1.495900e-14 0 
    2.018366 1.994261e-01 1.468600e-14 0 
    2.037042 1.957753e-01 1.415400e-14 0 
    2.055892 1.962312e-01 1.392800e-14 0 
    2.079696 1.948762e-01 1.351700e-14 0 
    2.098940 1.935358e-01 1.317900e-14 0 
    2.118362 1.930953e-01 1.290900e-14 0 
    2.137962 1.917637e-01 1.258600e-14 0 
    2.157745 1.908904e-01 1.230000e-14 0 
    2.177709 1.878313e-01 1.188200e-14 0 
    2.197860 1.873946e-01 1.163800e-14 0 
    2.218197 1.852530e-01 1.129500e-14 0 
    2.238721 1.831338e-01 1.096200e-14 0 
    2.259436 1.818759e-01 1.068800e-14 0 
    2.280341 1.802131e-01 1.039700e-14 0 
    2.301442 1.639715e-01 9.287300e-15 0 
    2.317393 1.643494e-01 9.181000e-15 0 
    2.338837 1.461408e-01 8.014800e-15 0 
    2.360479 1.402066e-01 7.549000e-15 0 
    2.376840 1.438028e-01 7.636400e-15 0 
    2.398834 1.345150e-01 7.012800e-15 0 
    2.421028 1.323636e-01 6.774700e-15 0 
    2.437811 1.326698e-01 6.697200e-15 0 
    2.460366 1.255354e-01 6.221400e-15 0 
    2.477422 1.252484e-01 6.122000e-15 0 
    2.500344 1.070940e-01 5.139100e-15 0 
    2.517677 1.068493e-01 5.057000e-15 0 
    2.540974 1.095892e-01 5.092000e-15 0 
    2.558586 1.103498e-01 5.057000e-15 0 
    2.582261 1.142263e-01 5.139100e-15 0 
    2.600159 1.137013e-01 5.045300e-15 0 
    2.618184 1.150182e-01 5.033700e-15 0 
    2.642408 1.139654e-01 4.896600e-15 0 
    2.660726 1.139652e-01 4.829400e-15 0 
    2.679168 1.134402e-01 4.741200e-15 0 
    2.697741 1.131796e-01 4.665400e-15 0 
    2.722701 1.131808e-01 4.580300e-15 0 
    2.741575 1.121422e-01 4.476000e-15 0 
    2.760578 1.118834e-01 4.404400e-15 0 
    2.779712 1.108590e-01 4.304200e-15 0 
    2.798981 1.106046e-01 4.235400e-15 0 
    2.818382 1.098423e-01 4.148500e-15 0 
    2.837920 1.093382e-01 4.072800e-15 0 
    2.864177 1.090848e-01 3.989200e-15 0 
    2.884032 1.083345e-01 3.907400e-15 0 
    2.904021 1.078371e-01 3.836100e-15 0 
    2.924153 1.070943e-01 3.757400e-15 0 
    2.944421 1.061132e-01 3.671900e-15 0 
    2.964832 1.053831e-01 3.596600e-15 0 
    2.978516 1.046578e-01 3.539100e-15 0 
    2.999164 1.036972e-01 3.458500e-15 0 
    3.019952 1.034585e-01 3.403200e-15 0 
    3.040884 1.027462e-01 3.333400e-15 0 
    3.061964 1.027475e-01 3.287700e-15 0 
    3.083187 1.025100e-01 3.235100e-15 0 
    3.104560 1.022751e-01 3.183400e-15 0 
    3.118889 1.015710e-01 3.132500e-15 0 
    3.140510 1.015704e-01 3.089500e-15 0 
    3.162278 1.011034e-01 3.033100e-15 0 
    3.184196 1.008706e-01 2.984600e-15 0 
    3.198896 1.004090e-01 2.943700e-15 0 
    3.221068 9.994852e-02 2.890000e-15 0 
    3.243397 9.971552e-02 2.843700e-15 0 
    3.265878 9.948850e-02 2.798300e-15 0 
    3.280952 9.880151e-02 2.753500e-15 0 
    3.303696 9.834973e-02 2.703300e-15 0 
    3.326594 9.812425e-02 2.660100e-15 0 
    3.341952 9.722304e-02 2.611500e-15 0 
    3.365115 9.699759e-02 2.569700e-15 0 
    3.380647 9.588741e-02 2.517000e-15 0 
    3.404082 9.544850e-02 2.471100e-15 0 
    3.419794 9.435520e-02 2.420400e-15 0 
    3.443501 9.413828e-02 2.381700e-15 0 
    3.467368 9.370446e-02 2.338200e-15 0 
    3.483372 9.263408e-02 2.290300e-15 0 
    3.507520 9.220871e-02 2.248500e-15 0 
    3.523708 9.136073e-02 2.207400e-15 0 
    3.539971 9.031794e-02 2.162200e-15 0 
    3.564512 8.990163e-02 2.122700e-15 0 
    3.580964 8.907922e-02 2.084000e-15 0 
    3.605788 8.866730e-02 2.045900e-15 0 
    3.622430 8.785616e-02 2.008600e-15 0 
    3.647538 8.745069e-02 1.971900e-15 0 
    3.664377 8.645174e-02 1.931500e-15 0 
    3.681289 8.546273e-02 1.891900e-15 0 
    3.706805 8.467752e-02 1.848800e-15 0 
    3.723918 8.390339e-02 1.815100e-15 0 
    3.741105 8.332207e-02 1.786000e-15 0 
    3.767040 8.237164e-02 1.741400e-15 0 
    3.784427 8.199281e-02 1.717500e-15 0 
    3.801893 8.105058e-02 1.682200e-15 0 
    3.828249 8.086899e-02 1.655400e-15 0 
    3.845918 8.012331e-02 1.625100e-15 0 
    3.863669 7.939176e-02 1.595500e-15 0 
    3.881506 7.848427e-02 1.562800e-15 0 
    3.908409 7.811972e-02 1.534200e-15 0 
    3.926448 7.740359e-02 1.506200e-15 0 
    3.944575 7.669362e-02 1.478700e-15 0 
    3.962781 7.564440e-02 1.445100e-15 0 
    3.981071 7.512391e-02 1.422000e-15 0 
    4.008669 7.443359e-02 1.389600e-15 0 
    4.027171 7.392213e-02 1.367400e-15 0 
    4.045758 7.341118e-02 1.345500e-15 0 
    4.064435 7.257075e-02 1.317900e-15 0 
    4.083195 7.190841e-02 1.293900e-15 0 
    4.102040 7.141265e-02 1.273200e-15 0 
    4.130477 7.124607e-02 1.252800e-15 0 
    4.149541 7.059664e-02 1.230000e-15 0 
    4.168693 6.994645e-02 1.207500e-15 0 
    4.187938 6.946544e-02 1.188200e-15 0 
    4.207267 6.882776e-02 1.166500e-15 0 
    4.226686 6.819618e-02 1.145200e-15 0 
    4.246193 6.803979e-02 1.132100e-15 0 
    4.265796 6.726223e-02 1.108900e-15 0 
    4.285485 6.695406e-02 1.093700e-15 0 
    4.305264 6.468201e-02 1.046900e-15 0 
    4.325140 6.234053e-02 9.997500e-16 0 
    4.345102 6.277256e-02 9.974500e-16 0 
    4.365157 6.078098e-02 9.569500e-16 0 
    4.385309 5.980949e-02 9.330200e-16 0 
    4.405549 5.395404e-02 8.339600e-16 0 
    4.425883 5.361225e-02 8.210800e-16 0 
    4.446310 5.325621e-02 8.081500e-16 0 
    4.466837 5.288512e-02 7.951600e-16 0 
    4.487454 5.249846e-02 7.821100e-16 0 
    4.508165 5.216920e-02 7.700800e-16 0 
    4.528977 5.182742e-02 7.580200e-16 0 
    4.549880 5.147129e-02 7.459100e-16 0 
    4.570880 5.109996e-02 7.337400e-16 0 
    4.591982 5.076245e-02 7.222100e-16 0 
    4.613176 5.043548e-02 7.109800e-16 0 
    4.623810 5.026634e-02 7.053400e-16 0 
    4.645151 4.991722e-02 6.940200e-16 0 
    4.666595 4.955381e-02 6.826500e-16 0 
    4.688134 4.923793e-02 6.720800e-16 0 
    4.709772 4.891712e-02 6.615800e-16 0 
    4.731515 4.858254e-02 6.510300e-16 0 
    4.753353 4.823370e-02 6.404300e-16 0 
    4.764310 4.805910e-02 6.351800e-16 0 
    4.786299 4.775768e-02 6.254100e-16 0 
    4.808395 4.744360e-02 6.156000e-16 0 
    4.830588 4.711641e-02 6.057500e-16 0 
    4.852884 4.677440e-02 5.958400e-16 0 
    4.864070 4.661725e-02 5.911100e-16 0 
    4.886525 4.632197e-02 5.819800e-16 0 
    4.909079 4.601393e-02 5.728100e-16 0 
    4.931736 4.569378e-02 5.636100e-16 0 
    4.954504 4.535896e-02 5.543500e-16 0 
    4.965924 4.521731e-02 5.500800e-16 0 
    4.988845 4.492885e-02 5.415600e-16 0 
    5.011870 4.462697e-02 5.329900e-16 0 
    5.035008 4.431323e-02 5.243900e-16 0 
    5.046614 4.415102e-02 5.200700e-16 0 
    5.069906 4.385950e-02 5.119000e-16 0 
    5.093306 4.357697e-02 5.039400e-16 0 
    5.105052 4.343072e-02 4.999400e-16 0 
    5.116820 4.328121e-02 4.959300e-16 0 
    5.128614 4.312938e-02 4.919200e-16 0 
    5.140436 4.297436e-02 4.879000e-16 0 
    5.152285 4.281523e-02 4.838600e-16 0 
    5.164162 4.267683e-02 4.800800e-16 0 
    5.176071 4.254256e-02 4.763700e-16 0 
    5.188002 4.240515e-02 4.726500e-16 0 
    5.199961 4.226469e-02 4.689200e-16 0 
    5.211947 4.212201e-02 4.651900e-16 0 
    5.223961 4.197621e-02 4.614500e-16 0 
    5.236003 4.182727e-02 4.577000e-16 0 
    5.248072 4.167511e-02 4.539400e-16 0 
    5.260175 4.152353e-02 4.502100e-16 0 
    5.272300 4.139551e-02 4.467600e-16 0 
    5.284453 4.126357e-02 4.432900e-16 0 
    5.296634 4.112952e-02 4.398200e-16 0 
    5.308843 4.099242e-02 4.363400e-16 0 
    5.321080 4.085223e-02 4.328500e-16 0 
    5.333352 4.070902e-02 4.293500e-16 0 
    5.345646 4.056258e-02 4.258400e-16 0 
    5.357968 4.041391e-02 4.223300e-16 0 
    5.370318 4.027742e-02 4.189700e-16 0 
    5.382697 4.015137e-02 4.157400e-16 0 
    5.395105 4.002331e-02 4.125100e-16 0 
    5.407541 3.989125e-02 4.092600e-16 0 
    5.420011 3.975720e-02 4.060100e-16 0 
    5.432505 3.962001e-02 4.027500e-16 0 
    5.445027 3.947970e-02 3.994800e-16 0 
    5.457579 3.933727e-02 3.962100e-16 0 
    5.470159 3.919068e-02 3.929200e-16 0 
    5.482768 3.906895e-02 3.899000e-16 0 
    5.495406 3.894526e-02 3.868800e-16 0 
    5.508079 3.881866e-02 3.838500e-16 0 
    5.520776 3.869000e-02 3.808200e-16 0 
    5.533502 3.855830e-02 3.777800e-16 0 
    5.546257 3.842455e-02 3.747400e-16 0 
    5.559041 3.828771e-02 3.716900e-16 0 
    5.571855 3.814776e-02 3.686300e-16 0 
    5.584705 3.801411e-02 3.656500e-16 0 
    5.597578 3.789503e-02 3.628300e-16 0 
    5.610481 3.777509e-02 3.600200e-16 0 
    5.623413 3.765113e-02 3.571900e-16 0 
    5.636376 3.752523e-02 3.543600e-16 0 
    5.649368 3.739629e-02 3.515200e-16 0 
    5.662390 3.726429e-02 3.486700e-16 0 
    5.675448 3.713036e-02 3.458200e-16 0 
    5.688531 3.699325e-02 3.429600e-16 0 
    5.701643 3.687357e-02 3.402800e-16 0 
    5.714786 3.675745e-02 3.376500e-16 0 
    5.727959 3.663838e-02 3.350100e-16 0 
    5.741162 3.651743e-02 3.323700e-16 0 
    5.754402 3.639355e-02 3.297200e-16 0 
    5.767667 3.626768e-02 3.270700e-16 0 
    5.780962 3.613876e-02 3.244100e-16 0 
    5.794287 3.600786e-02 3.217500e-16 0 
    5.807643 3.587724e-02 3.191100e-16 0 
    5.821030 3.576611e-02 3.166600e-16 0 
    5.834448 3.565205e-02 3.142000e-16 0 
    5.847904 3.553626e-02 3.117400e-16 0 
    5.861383 3.541740e-02 3.092700e-16 0 
    5.874894 3.529670e-02 3.068000e-16 0 
    5.888436 3.517298e-02 3.043200e-16 0 
    5.902009 3.504736e-02 3.018400e-16 0 
    5.915614 3.491867e-02 2.993500e-16 0 
    5.929250 3.480093e-02 2.969700e-16 0 
    5.942924 3.469203e-02 2.946800e-16 0 
    5.956623 3.458013e-02 2.923800e-16 0 
    5.970353 3.446645e-02 2.900800e-16 0 
    5.984115 3.435098e-02 2.877800e-16 0 
    5.997909 3.423253e-02 2.854700e-16 0 
    6.011735 3.411105e-02 2.831500e-16 0 
    6.025599 3.398777e-02 2.808300e-16 0 
    6.039488 3.386134e-02 2.785000e-16 0 
    6.053410 3.375624e-02 2.763600e-16 0 
    6.067363 3.364944e-02 2.742200e-16 0 
    6.081349 3.354094e-02 2.720800e-16 0 
    6.095367 3.342948e-02 2.699300e-16 0 
    6.109417 3.331503e-02 2.677700e-16 0 
    6.123506 3.319888e-02 2.656100e-16 0 
    6.137621 3.308088e-02 2.634500e-16 0 
    6.151769 3.295983e-02 2.612800e-16 0 
    6.165950 3.284456e-02 2.591700e-16 0 
    6.180162 3.274279e-02 2.571800e-16 0 
    6.194408 3.263811e-02 2.551800e-16 0 
    6.208693 3.253055e-02 2.531700e-16 0 
    6.223005 3.242252e-02 2.511700e-16 0 
    6.237350 3.231022e-02 2.491500e-16 0 
    6.251727 3.219747e-02 2.471400e-16 0 
    6.266138 3.208170e-02 2.451200e-16 0 
    6.280582 3.196286e-02 2.430900e-16 0 
    6.295059 3.185941e-02 2.411900e-16 0 
    6.309576 3.175836e-02 2.393200e-16 0 
    6.324120 3.165697e-02 2.374600e-16 0 
    6.338698 3.155130e-02 2.355800e-16 0 
    6.353309 3.144532e-02 2.337100e-16 0 
    6.367954 3.133634e-02 2.318300e-16 0 
    6.382632 3.122431e-02 2.299400e-16 0 
    6.397352 3.111066e-02 2.280500e-16 0 
    6.412098 3.099797e-02 2.261800e-16 0 
    6.426879 3.090285e-02 2.244500e-16 0 
    6.441693 3.080481e-02 2.227100e-16 0 
    6.456541 3.070381e-02 2.209600e-16 0 
    6.471424 3.060122e-02 2.192100e-16 0 
    6.486341 3.049704e-02 2.174600e-16 0 
    6.501300 3.038990e-02 2.157000e-16 0 
    6.516286 3.028105e-02 2.139400e-16 0 
    6.531306 3.017055e-02 2.121800e-16 0 
    6.546361 3.006839e-02 2.104900e-16 0 
    6.561452 2.997470e-02 2.088700e-16 0 
    6.576576 2.987803e-02 2.072400e-16 0 
    6.591735 2.977985e-02 2.056100e-16 0 
    6.606937 2.968019e-02 2.039800e-16 0 
    6.622166 2.957744e-02 2.023400e-16 0 
    6.637431 2.947312e-02 2.007000e-16 0 
    6.652731 2.936574e-02 1.990500e-16 0 
    6.668066 2.925672e-02 1.974000e-16 0 
    6.683436 2.916543e-02 1.958800e-16 0 
    6.698849 2.907424e-02 1.943700e-16 0 
    6.714291 2.898002e-02 1.928500e-16 0 
    6.729768 2.888280e-02 1.913200e-16 0 
    6.745280 2.878557e-02 1.898000e-16 0 
    6.760829 2.868532e-02 1.882700e-16 0 
    6.776412 2.858199e-02 1.867300e-16 0 
    6.792033 2.847864e-02 1.852000e-16 0 
    6.807696 2.837842e-02 1.837000e-16 0 
    6.823389 2.829058e-02 1.822900e-16 0 
    6.839117 2.819976e-02 1.808700e-16 0 
    6.854882 2.810750e-02 1.794500e-16 0 
    6.870683 2.801378e-02 1.780300e-16 0 
    6.886520 2.791702e-02 1.766000e-16 0 
    6.902402 2.781884e-02 1.751700e-16 0 
    6.918312 2.771908e-02 1.737400e-16 0 
    6.934259 2.761622e-02 1.723000e-16 0 
    6.950243 2.752630e-02 1.709500e-16 0 
    6.966264 2.743982e-02 1.696300e-16 0 
    6.982322 2.735196e-02 1.683100e-16 0 
    6.998416 2.726106e-02 1.669800e-16 0 
    7.014556 2.716881e-02 1.656500e-16 0 
    7.030725 2.707506e-02 1.643200e-16 0 
    7.046931 2.697821e-02 1.629800e-16 0 
    7.063175 2.687989e-02 1.616400e-16 0 
    7.079456 2.678343e-02 1.603200e-16 0 
    7.095775 2.670062e-02 1.590900e-16 0 
    7.112139 2.661484e-02 1.578500e-16 0 
    7.128533 2.652933e-02 1.566200e-16 0 
    7.144965 2.644077e-02 1.553800e-16 0 
    7.161434 2.634911e-02 1.541300e-16 0 
    7.177942 2.625776e-02 1.528900e-16 0 
    7.194488 2.616329e-02 1.516400e-16 0 
    7.211072 2.606738e-02 1.503900e-16 0 
    7.227702 2.597879e-02 1.491900e-16 0 
    7.244362 2.589751e-02 1.480400e-16 0 
    7.261061 2.581494e-02 1.468900e-16 0 
    7.277798 2.573105e-02 1.457400e-16 0 
    7.294573 2.564405e-02 1.445800e-16 0 
    7.311388 2.555572e-02 1.434200e-16 0 
    7.328241 2.546423e-02 1.422500e-16 0 
    7.345141 2.537320e-02 1.410900e-16 0 
    7.362073 2.527893e-02 1.399200e-16 0 
    7.379043 2.519959e-02 1.388400e-16 0 
    7.396052 2.512079e-02 1.377700e-16 0 
    7.413101 2.503890e-02 1.366900e-16 0 
    7.430188 2.495572e-02 1.356100e-16 0 
    7.447323 2.487128e-02 1.345300e-16 0 
    7.464490 2.478364e-02 1.334400e-16 0 
    7.481696 2.469651e-02 1.323600e-16 0 
    7.498942 2.460618e-02 1.312700e-16 0 
    7.516227 2.452014e-02 1.302100e-16 0 
    7.533553 2.444224e-02 1.292000e-16 0 
    7.550919 2.436500e-02 1.282000e-16 0 
    7.568332 2.428466e-02 1.271900e-16 0 
    7.585778 2.420302e-02 1.261800e-16 0 
    7.603263 2.412010e-02 1.251700e-16 0 
    7.620790 2.403590e-02 1.241600e-16 0 
    7.638356 2.394847e-02 1.231400e-16 0 
    7.655963 2.386167e-02 1.221300e-16 0 
    7.673619 2.378342e-02 1.211700e-16 0 
    7.691307 2.370784e-02 1.202300e-16 0 
    7.709036 2.363303e-02 1.193000e-16 0 
    7.726806 2.355503e-02 1.183600e-16 0 
    7.744617 2.347382e-02 1.174100e-16 0 
    7.762469 2.339336e-02 1.164700e-16 0 
    7.780362 2.330963e-02 1.155200e-16 0 
    7.798305 2.322470e-02 1.145700e-16 0 
    7.816280 2.314046e-02 1.136300e-16 0 
    7.834298 2.306928e-02 1.127600e-16 0 
    7.852356 2.299694e-02 1.118900e-16 0 
    7.870456 2.292138e-02 1.110100e-16 0 
    7.888598 2.284462e-02 1.101300e-16 0 
    7.906782 2.276668e-02 1.092500e-16 0 
    7.925016 2.268757e-02 1.083700e-16 0 
    7.943284 2.260511e-02 1.074800e-16 0 
    7.961594 2.252351e-02 1.066000e-16 0 
    7.979946 2.244704e-02 1.057500e-16 0 
    7.998341 2.237578e-02 1.049300e-16 0 
    8.016777 2.230553e-02 1.041200e-16 0 
    8.035265 2.223205e-02 1.033000e-16 0 
    8.053787 2.215737e-02 1.024800e-16 0 
    8.072352 2.207935e-02 1.016500e-16 0 
    8.090959 2.200232e-02 1.008300e-16 0 
    8.109609 2.192192e-02 1.000000e-16 0 
    8.128302 2.184119e-02 9.917400e-17 0 
    8.147038 2.177296e-02 9.841000e-17 0 
    8.165827 2.170414e-02 9.764800e-17 0 
    8.184650 2.163371e-02 9.688400e-17 0 
    8.203516 2.156195e-02 9.611900e-17 0 
    8.222426 2.148862e-02 9.535200e-17 0 
    8.241379 2.141370e-02 9.458300e-17 0 
    8.260376 2.133739e-02 9.381300e-17 0 
    8.279426 2.125929e-02 9.304000e-17 0 
    8.298510 2.118502e-02 9.228900e-17 0 
    8.317639 2.111907e-02 9.157900e-17 0 
    8.336812 2.105159e-02 9.086700e-17 0 
    8.356029 2.098281e-02 9.015400e-17 0 
    8.375290 2.091247e-02 8.943900e-17 0 
    8.394596 2.084057e-02 8.872200e-17 0 
    8.413955 2.076737e-02 8.800400e-17 0 
    8.433350 2.069253e-02 8.728400e-17 0 
    8.452789 2.061632e-02 8.656300e-17 0 
    8.472273 2.054925e-02 8.588500e-17 0 
    8.491803 2.048449e-02 8.522100e-17 0 
    8.511377 2.041870e-02 8.455700e-17 0 
    8.531005 2.035117e-02 8.389000e-17 0 
    8.550670 2.028230e-02 8.322200e-17 0 
    8.570380 2.021187e-02 8.255200e-17 0 
    8.590135 2.014011e-02 8.188100e-17 0 
    8.609937 2.006702e-02 8.120900e-17 0 
    8.629783 1.999430e-02 8.054300e-17 0 
    8.649675 1.993221e-02 7.992400e-17 0 
    8.669623 1.986892e-02 7.930400e-17 0 
    8.689607 1.980432e-02 7.868300e-17 0 
    8.709637 1.973819e-02 7.806000e-17 0 
    8.729713 1.967078e-02 7.743600e-17 0 
    8.749836 1.960207e-02 7.681100e-17 0 
    8.770005 1.953180e-02 7.618400e-17 0 
    8.790220 1.945994e-02 7.555500e-17 0 
    8.810492 1.939429e-02 7.495400e-17 0 
    8.830801 1.933355e-02 7.437600e-17 0 
    8.851157 1.927159e-02 7.379700e-17 0 
    8.871559 1.920811e-02 7.321600e-17 0 
    8.892009 1.914364e-02 7.263500e-17 0 
    8.912505 1.907763e-02 7.205200e-17 0 
    8.933059 1.901012e-02 7.146700e-17 0 
    8.953651 1.894126e-02 7.088100e-17 0 
    8.974289 1.887110e-02 7.029400e-17 0 
    8.994976 1.881202e-02 6.975200e-17 0 
    9.015710 1.875254e-02 6.921200e-17 0 
    9.036491 1.869182e-02 6.867100e-17 0 
    9.057321 1.862989e-02 6.812900e-17 0 
    9.078209 1.856647e-02 6.758500e-17 0 
    9.099135 1.850176e-02 6.704000e-17 0 
    9.120109 1.843577e-02 6.649400e-17 0 
    9.141132 1.836850e-02 6.594700e-17 0 
    9.162202 1.830413e-02 6.541400e-17 0 
    9.183322 1.824722e-02 6.491100e-17 0 
    9.204501 1.818886e-02 6.440600e-17 0 
    9.225717 1.812954e-02 6.390100e-17 0 
    9.246984 1.806871e-02 6.339400e-17 0 
    9.268298 1.800664e-02 6.288600e-17 0 
    9.289662 1.794333e-02 6.237700e-17 0 
    9.311076 1.787877e-02 6.186700e-17 0 
    9.332538 1.781264e-02 6.135500e-17 0 
    9.354061 1.775490e-02 6.087500e-17 0 
    9.375623 1.769913e-02 6.040500e-17 0 
    9.397234 1.764188e-02 5.993300e-17 0 
    9.418895 1.758372e-02 5.946100e-17 0 
    9.440607 1.752407e-02 5.898700e-17 0 
    9.462368 1.746348e-02 5.851300e-17 0 
    9.484190 1.740140e-02 5.803700e-17 0 
    9.506052 1.733804e-02 5.756000e-17 0 
    9.527963 1.727523e-02 5.708800e-17 0 
    9.549927 1.722181e-02 5.665000e-17 0 
    9.571940 1.716722e-02 5.621100e-17 0 
    9.594004 1.711115e-02 5.577000e-17 0 
    9.616119 1.705419e-02 5.532900e-17 0 
    9.638295 1.699577e-02 5.488600e-17 0 
    9.660512 1.693640e-02 5.444300e-17 0 
    9.682780 1.687581e-02 5.399900e-17 0 
    9.705099 1.681367e-02 5.355300e-17 0 
    9.727470 1.675691e-02 5.312700e-17 0 
    9.749893 1.670465e-02 5.271800e-17 0 
    9.772367 1.665092e-02 5.230700e-17 0 
    9.794904 1.659637e-02 5.189600e-17 0 
    9.817482 1.654028e-02 5.148300e-17 0 
    9.840112 1.648332e-02 5.107000e-17 0 
    9.862794 1.642516e-02 5.065600e-17 0 
    9.885528 1.636546e-02 5.024000e-17 0 
    9.908315 1.630485e-02 4.982400e-17 0 
    9.931166 1.625390e-02 4.944000e-17 0 
    9.954058 1.620243e-02 4.905700e-17 0 
    9.977002 1.615013e-02 4.867400e-17 0 
   10.000000 1.609667e-02 4.829000e-17 0 
   10.023051 1.604170e-02 4.790400e-17 0 
   10.046155 1.598588e-02 4.751800e-17 0 
   10.069312 1.592887e-02 4.713100e-17 0 
   10.092534 1.587069e-02 4.674300e-17 0 
   10.115797 1.581500e-02 4.636500e-17 0 
   10.139115 1.576600e-02 4.600900e-17 0 
   10.162486 1.571553e-02 4.565100e-17 0 
   10.185912 1.566425e-02 4.529300e-17 0 
   10.209391 1.561182e-02 4.493400e-17 0 
   10.232935 1.555790e-02 4.457300e-17 0 
   10.256523 1.550347e-02 4.421300e-17 0 
   10.280165 1.544751e-02 4.385100e-17 0 
   10.303862 1.539034e-02 4.348800e-17 0 
   10.327612 1.534049e-02 4.314800e-17 0 
   10.351419 1.529236e-02 4.281500e-17 0 
   10.375279 1.524309e-02 4.248100e-17 0 
   10.399206 1.519272e-02 4.214600e-17 0 
   10.423177 1.514116e-02 4.181000e-17 0 
   10.447203 1.508880e-02 4.147400e-17 0 
   10.471285 1.503527e-02 4.113700e-17 0 
   10.495422 1.498056e-02 4.079900e-17 0 
   10.519615 1.492613e-02 4.046400e-17 0 
   10.543863 1.487977e-02 4.015300e-17 0 
   10.568179 1.483270e-02 3.984200e-17 0 
   10.592540 1.478447e-02 3.953000e-17 0 
   10.616956 1.473510e-02 3.921700e-17 0 
   10.641429 1.468459e-02 3.890300e-17 0 
   10.665959 1.463330e-02 3.858900e-17 0 
   10.690544 1.458083e-02 3.827400e-17 0 
   10.715198 1.452722e-02 3.795800e-17 0 
   10.739898 1.447816e-02 3.765600e-17 0 
   10.764654 1.443296e-02 3.736600e-17 0 
   10.789467 1.438666e-02 3.707500e-17 0 
   10.814338 1.433923e-02 3.678300e-17 0 
   10.839266 1.429105e-02 3.649100e-17 0 
   10.864251 1.424173e-02 3.619800e-17 0 
   10.889305 1.419129e-02 3.590400e-17 0 
   10.914406 1.414005e-02 3.561000e-17 0 
   10.939565 1.408763e-02 3.531500e-17 0 
   10.964781 1.404365e-02 3.504300e-17 0 
   10.990055 1.399936e-02 3.477200e-17 0 
   11.015388 1.395396e-02 3.450000e-17 0 
   11.040792 1.390747e-02 3.422700e-17 0 
   11.066241 1.386021e-02 3.395400e-17 0 
   11.091750 1.381223e-02 3.368100e-17 0 
   11.117317 1.376269e-02 3.340600e-17 0 
   11.142944 1.371239e-02 3.313100e-17 0 
   11.168629 1.366466e-02 3.286400e-17 0 
   11.194373 1.362205e-02 3.261100e-17 0 
   11.220190 1.357836e-02 3.235700e-17 0 
   11.246053 1.353395e-02 3.210300e-17 0 
   11.271976 1.348884e-02 3.184900e-17 0 
   11.297959 1.344260e-02 3.159400e-17 0 
   11.324001 1.339522e-02 3.133800e-17 0 
   11.350104 1.334669e-02 3.108100e-17 0 
   11.376279 1.329744e-02 3.082400e-17 0 
   11.402502 1.325437e-02 3.058300e-17 0 
   11.428786 1.321280e-02 3.034700e-17 0 
   11.455130 1.317011e-02 3.011000e-17 0 
   11.481534 1.312676e-02 2.987300e-17 0 
   11.508001 1.308228e-02 2.963500e-17 0 
   11.534527 1.303667e-02 2.939600e-17 0 
   11.561128 1.299039e-02 2.915700e-17 0 
   11.587777 1.294337e-02 2.891800e-17 0 
   11.614488 1.289654e-02 2.868100e-17 0 
   11.641260 1.285623e-02 2.846000e-17 0 
   11.668094 1.281573e-02 2.824000e-17 0 
   11.694990 1.277412e-02 2.801900e-17 0 
   11.721948 1.273140e-02 2.779700e-17 0 
   11.748980 1.268758e-02 2.757400e-17 0 
   11.776062 1.264352e-02 2.735200e-17 0 
   11.803207 1.259785e-02 2.712800e-17 0 
   11.830414 1.255196e-02 2.690500e-17 0 
   11.857684 1.250960e-02 2.669100e-17 0 
   11.885017 1.247034e-02 2.648500e-17 0 
   11.912426 1.243048e-02 2.627900e-17 0 
   11.939885 1.238949e-02 2.607200e-17 0 
   11.967407 1.234785e-02 2.586500e-17 0 
   11.994993 1.230508e-02 2.565700e-17 0 
   12.022642 1.226166e-02 2.544900e-17 0 
   12.050355 1.221709e-02 2.524000e-17 0 
   12.078132 1.217185e-02 2.503100e-17 0 
   12.105987 1.213377e-02 2.483800e-17 0 
   12.133891 1.209554e-02 2.464600e-17 0 
   12.161861 1.205621e-02 2.445300e-17 0 
   12.189895 1.201626e-02 2.426000e-17 0 
   12.217994 1.197569e-02 2.406700e-17 0 
   12.246157 1.193398e-02 2.387300e-17 0 
   12.274398 1.189116e-02 2.367800e-17 0 
   12.302692 1.184766e-02 2.348300e-17 0 
   12.331051 1.180655e-02 2.329400e-17 0 
   12.359474 1.176939e-02 2.311400e-17 0 
   12.387964 1.173214e-02 2.293500e-17 0 
   12.416520 1.169379e-02 2.275500e-17 0 
   12.445140 1.165432e-02 2.257400e-17 0 
   12.473841 1.161426e-02 2.239300e-17 0 
   12.502594 1.157355e-02 2.221200e-17 0 
   12.531413 1.153170e-02 2.203000e-17 0 
   12.560299 1.148922e-02 2.184800e-17 0 
   12.589252 1.145191e-02 2.167700e-17 0 
   12.618270 1.141613e-02 2.151000e-17 0 
   12.647370 1.137927e-02 2.134200e-17 0 
   12.676523 1.134180e-02 2.117400e-17 0 
   12.705744 1.130321e-02 2.100500e-17 0 
   12.735031 1.126401e-02 2.083600e-17 0 
   12.764387 1.122422e-02 2.066700e-17 0 
   12.793809 1.118327e-02 2.049700e-17 0 
   12.823300 1.114280e-02 2.032900e-17 0 
   12.852873 1.110835e-02 2.017300e-17 0 
   12.882499 1.107277e-02 2.001600e-17 0 
   12.912195 1.103663e-02 1.985900e-17 0 
   12.941958 1.099991e-02 1.970200e-17 0 
   12.971790 1.096262e-02 1.954500e-17 0 
   13.001691 1.092418e-02 1.938700e-17 0 
   13.031661 1.088516e-02 1.922900e-17 0 
   13.061714 1.084501e-02 1.907000e-17 0 
   13.091823 1.080822e-02 1.891800e-17 0 
   13.122000 1.077431e-02 1.877200e-17 0 
   13.152247 1.073985e-02 1.862600e-17 0 
   13.182564 1.070485e-02 1.848000e-17 0 
   13.212950 1.066871e-02 1.833300e-17 0 
   13.243422 1.063203e-02 1.818600e-17 0 
   13.273948 1.059418e-02 1.803800e-17 0 
   13.304547 1.055575e-02 1.789000e-17 0 
   13.335214 1.051674e-02 1.774200e-17 0 
   13.365953 1.048370e-02 1.760500e-17 0 
   13.396763 1.045073e-02 1.746900e-17 0 
   13.427642 1.041722e-02 1.733300e-17 0 
   13.458609 1.038261e-02 1.719600e-17 0 
   13.489633 1.034683e-02 1.705800e-17 0 
   13.520727 1.031110e-02 1.692100e-17 0 
   13.551894 1.027421e-02 1.678300e-17 0 
   13.583131 1.023676e-02 1.664500e-17 0 
   13.614441 1.020059e-02 1.651000e-17 0 
   13.645839 1.016887e-02 1.638300e-17 0 
   13.677294 1.013661e-02 1.625600e-17 0 
   13.708820 1.010321e-02 1.612800e-17 0 
   13.740420 1.006992e-02 1.600100e-17 0 
   13.772092 1.003483e-02 1.587200e-17 0 
   13.803839 9.999853e-03 1.574400e-17 0 
   13.835658 9.963693e-03 1.561500e-17 0 
   13.867564 9.927008e-03 1.548600e-17 0 
   13.899530 9.894903e-03 1.536500e-17 0 
   13.931570 9.863586e-03 1.524600e-17 0 
   13.963683 9.831765e-03 1.512700e-17 0 
   13.995870 9.799442e-03 1.500800e-17 0 
   14.028131 9.765956e-03 1.488800e-17 0 
   14.060467 9.732611e-03 1.476900e-17 0 
   14.092894 9.697448e-03 1.464800e-17 0 
   14.125378 9.662393e-03 1.452800e-17 0 
   14.157939 9.627481e-03 1.440900e-17 0 
   14.190573 9.597408e-03 1.429800e-17 0 
   14.223284 9.566853e-03 1.418700e-17 0 
   14.256070 9.535812e-03 1.407600e-17 0 
   14.288947 9.504301e-03 1.396500e-17 0 
   14.321883 9.471588e-03 1.385300e-17 0 
   14.354897 9.438375e-03 1.374100e-17 0 
   14.387986 9.404653e-03 1.362900e-17 0 
   14.421152 9.370417e-03 1.351700e-17 0 
   14.454392 9.338450e-03 1.340900e-17 0 
   14.487711 9.309488e-03 1.330600e-17 0 
   14.521122 9.279377e-03 1.320200e-17 0 
   14.554594 9.248768e-03 1.309800e-17 0 
   14.588144 9.217681e-03 1.299400e-17 0 
   14.621770 9.186109e-03 1.289000e-17 0 
   14.655475 9.153333e-03 1.278500e-17 0 
   14.689256 9.120777e-03 1.268100e-17 0 
   14.723133 9.087025e-03 1.257600e-17 0 
   14.757070 9.058553e-03 1.247900e-17 0 
   14.791086 9.029624e-03 1.238200e-17 0 
   14.825181 9.000237e-03 1.228500e-17 0 
   14.859355 8.970385e-03 1.218800e-17 0 
   14.893606 8.940065e-03 1.209100e-17 0 
   14.927938 8.908533e-03 1.199300e-17 0 
   14.962363 8.877283e-03 1.189600e-17 0 
   14.996853 8.844788e-03 1.179800e-17 0 
   15.031422 8.813309e-03 1.170200e-17 0 
   15.066070 8.785890e-03 1.161200e-17 0 
   15.100798 8.758030e-03 1.152200e-17 0 
   15.135606 8.729726e-03 1.143200e-17 0 
   15.170513 8.700227e-03 1.134100e-17 0 
   15.205481 8.670249e-03 1.125000e-17 0 
   15.240531 8.639811e-03 1.115900e-17 0 
   15.275661 8.608905e-03 1.106800e-17 0 
   15.310872 8.576749e-03 1.097600e-17 0 
   15.346166 8.548824e-03 1.089000e-17 0 
   15.381539 8.522035e-03 1.080600e-17 0 
   15.417011 8.494834e-03 1.072200e-17 0 
   15.452548 8.466387e-03 1.063700e-17 0 
   15.488169 8.438298e-03 1.055300e-17 0 
   15.523870 8.408964e-03 1.046800e-17 0 
   15.559653 8.379178e-03 1.038300e-17 0 
   15.595519 8.348939e-03 1.029800e-17 0 
   15.631469 8.318244e-03 1.021300e-17 0 
   15.667517 8.292831e-03 1.013500e-17 0 
   15.703631 8.266167e-03 1.005600e-17 0 
   15.739830 8.239246e-03 9.977200e-18 0 
   15.776111 8.211817e-03 9.898300e-18 0 
   15.812477 8.183710e-03 9.819100e-18 0 
   15.848925 8.155083e-03 9.739800e-18 0 
   15.885475 8.125868e-03 9.660300e-18 0 
   15.922092 8.096023e-03 9.580600e-18 0 
   15.958794 8.068700e-03 9.504400e-18 0 
   15.995580 8.043426e-03 9.431100e-18 0 
   16.032452 8.017662e-03 9.357700e-18 0 
   16.069406 7.991314e-03 9.284100e-18 0 
   16.106448 7.964382e-03 9.210300e-18 0 
   16.143592 7.936873e-03 9.136300e-18 0 
   16.180805 7.908837e-03 9.062200e-18 0 
   16.218103 7.880197e-03 8.987900e-18 0 
   16.255486 7.851035e-03 8.913500e-18 0 
   16.292956 7.826481e-03 8.844800e-18 0 
   16.330513 7.801711e-03 8.776300e-18 0 
   16.368173 7.776472e-03 8.707700e-18 0 
   16.405903 7.750638e-03 8.638900e-18 0 
   16.443720 7.724310e-03 8.570000e-18 0 
   16.481623 7.697392e-03 8.500900e-18 0 
   16.519616 7.669972e-03 8.431700e-18 0 
   16.557694 7.641950e-03 8.362300e-18 0 
   16.595861 7.615159e-03 8.294700e-18 0 
   16.634134 7.591481e-03 8.230900e-18 0 
   16.672477 7.567217e-03 8.166900e-18 0 
   16.710908 7.542476e-03 8.102800e-18 0 
   16.749428 7.517252e-03 8.038600e-18 0 
   16.788036 7.491446e-03 7.974200e-18 0 
   16.826734 7.465054e-03 7.909600e-18 0 
   16.865539 7.438179e-03 7.844900e-18 0 
   16.904416 7.410691e-03 7.780000e-18 0 
   16.943381 7.386617e-03 7.719100e-18 0 
   16.982437 7.363414e-03 7.659500e-18 0 
   17.021583 7.339646e-03 7.599700e-18 0 
   17.060819 7.315404e-03 7.539800e-18 0 
   17.100145 7.290685e-03 7.479800e-18 0 
   17.139581 7.265402e-03 7.419600e-18 0 
   17.179089 7.239616e-03 7.359300e-18 0 
   17.218688 7.213239e-03 7.298800e-18 0 
   17.258378 7.187159e-03 7.239000e-18 0 
   17.298161 7.164876e-03 7.183400e-18 0 
   17.338034 7.142133e-03 7.127700e-18 0 
   17.377998 7.118824e-03 7.071800e-18 0 
   17.418075 7.095165e-03 7.015900e-18 0 
   17.458225 7.070916e-03 6.959800e-18 0 
   17.498469 7.046090e-03 6.903500e-18 0 
   17.538803 7.020882e-03 6.847200e-18 0 
   17.579231 6.995086e-03 6.790700e-18 0 
   17.619753 6.971490e-03 6.736700e-18 0 
   17.660388 6.949621e-03 6.684700e-18 0 
   17.701095 6.927386e-03 6.632700e-18 0 
   17.741898 6.904589e-03 6.580500e-18 0 
   17.782794 6.881327e-03 6.528200e-18 0 
   17.823784 6.857598e-03 6.475800e-18 0 
   17.864870 6.833397e-03 6.423300e-18 0 
   17.906050 6.808613e-03 6.370600e-18 0 
   17.947344 6.783362e-03 6.317800e-18 0 
   17.988714 6.762140e-03 6.269100e-18 0 
   18.030180 6.740795e-03 6.220600e-18 0 
   18.071741 6.719000e-03 6.172000e-18 0 
   18.113397 6.696750e-03 6.123300e-18 0 
   18.155150 6.673933e-03 6.074400e-18 0 
   18.197019 6.650665e-03 6.025400e-18 0 
   18.238964 6.626916e-03 5.976300e-18 0 
   18.281006 6.602694e-03 5.927100e-18 0 
   18.323145 6.579563e-03 5.879200e-18 0 
   18.365381 6.559112e-03 5.834000e-18 0 
   18.407714 6.538220e-03 5.788700e-18 0 
   18.450145 6.516881e-03 5.743300e-18 0 
   18.492695 6.494994e-03 5.697700e-18 0 
   18.535322 6.472636e-03 5.652000e-18 0 
   18.578047 6.449933e-03 5.606300e-18 0 
   18.620870 6.426651e-03 5.560400e-18 0 
   18.663794 6.403018e-03 5.514500e-18 0 
   18.706814 6.382179e-03 5.471300e-18 0 
   18.749934 6.362065e-03 5.429000e-18 0 
   18.793175 6.341526e-03 5.386600e-18 0 
   18.836495 6.320649e-03 5.344200e-18 0 
   18.879914 6.299205e-03 5.301600e-18 0 
   18.923434 6.277429e-03 5.259000e-18 0 
   18.967053 6.255198e-03 5.216300e-18 0 
   19.010775 6.232388e-03 5.173400e-18 0 
   19.054616 6.209730e-03 5.130900e-18 0 
   19.098539 6.190487e-03 5.091500e-18 0 
   19.142563 6.170933e-03 5.052100e-18 0 
   19.186688 6.150822e-03 5.012500e-18 0 
   19.230914 6.130270e-03 4.972800e-18 0 
   19.275242 6.109397e-03 4.933100e-18 0 
   19.319673 6.087953e-03 4.893200e-18 0 
   19.364228 6.066193e-03 4.853300e-18 0 
   19.408864 6.043839e-03 4.813200e-18 0 
   19.453603 6.023420e-03 4.774900e-18 0 
   19.498444 6.004583e-03 4.738100e-18 0 
   19.543389 5.985318e-03 4.701200e-18 0 
   19.588439 5.965747e-03 4.664300e-18 0 
   19.633613 5.945624e-03 4.627200e-18 0 
   19.678870 5.925046e-03 4.590000e-18 0 
   19.724231 5.904152e-03 4.552800e-18 0 
   19.769697 5.882807e-03 4.515500e-18 0 
   19.815267 5.861009e-03 4.478100e-18 0 
   19.860942 5.842698e-03 4.443600e-18 0 
   19.906723 5.824224e-03 4.409200e-18 0 
   19.952631 5.805336e-03 4.374700e-18 0 
   19.998623 5.786004e-03 4.340100e-18 0 
   20.044722 5.766368e-03 4.305500e-18 0 
   20.090927 5.746295e-03 4.270800e-18 0 
   20.137238 5.725778e-03 4.236000e-18 0 
   20.183656 5.704949e-03 4.201200e-18 0 
   20.230203 5.684909e-03 4.167200e-18 0 
   20.276834 5.667155e-03 4.135100e-18 0 
   20.323573 5.649114e-03 4.103000e-18 0 
   20.370422 5.630650e-03 4.070800e-18 0 
   20.417377 5.611755e-03 4.038500e-18 0 
   20.464441 5.592566e-03 4.006200e-18 0 
   20.511613 5.572800e-03 3.973700e-18 0 
   20.558916 5.552744e-03 3.941200e-18 0 
   20.606305 5.532230e-03 3.908600e-18 0 
   20.653805 5.514253e-03 3.878000e-18 0 
   20.701412 5.496991e-03 3.848100e-18 0 
   20.749131 5.479167e-03 3.818000e-18 0 
   20.796959 5.461204e-03 3.788000e-18 0 
   20.844898 5.442670e-03 3.757800e-18 0 
   20.892970 5.423860e-03 3.727600e-18 0 
   20.941130 5.404601e-03 3.697300e-18 0 
   20.989400 5.384902e-03 3.666900e-18 0 
   21.037783 5.365351e-03 3.636800e-18 0 
   21.086275 5.348763e-03 3.608900e-18 0 
   21.134881 5.331760e-03 3.580900e-18 0 
   21.183622 5.314347e-03 3.552800e-18 0 
   21.232452 5.296649e-03 3.524700e-18 0 
   21.281394 5.278523e-03 3.496500e-18 0 
   21.330448 5.260117e-03 3.468300e-18 0 
   21.379617 5.241276e-03 3.440000e-18 0 
   21.428898 5.221996e-03 3.411600e-18 0 
   21.478294 5.204426e-03 3.384500e-18 0 
   21.527827 5.188138e-03 3.358400e-18 0 
   21.577450 5.171423e-03 3.332200e-18 0 
   21.627188 5.154443e-03 3.306000e-18 0 
   21.677039 5.137038e-03 3.279700e-18 0 
   21.727006 5.119364e-03 3.253400e-18 0 
   21.777089 5.101259e-03 3.227000e-18 0 
   21.827311 5.082889e-03 3.200600e-18 0 
   21.877623 5.063910e-03 3.174000e-18 0 
   21.928053 5.048174e-03 3.149600e-18 0 
   21.978598 5.032185e-03 3.125200e-18 0 
   22.029261 5.015940e-03 3.100800e-18 0 
   22.080041 4.999277e-03 3.076300e-18 0 
   22.130936 4.982188e-03 3.051700e-18 0 
   22.181973 4.964847e-03 3.027100e-18 0 
   22.233105 4.947229e-03 3.002500e-18 0 
   22.284355 4.929177e-03 2.977800e-18 0 
   22.335720 4.911850e-03 2.953700e-18 0 
   22.387206 4.896597e-03 2.931000e-18 0 
   22.438811 4.880931e-03 2.908200e-18 0 
   22.490558 4.865027e-03 2.885400e-18 0 
   22.542400 4.848692e-03 2.862500e-18 0 
   22.594363 4.831932e-03 2.839500e-18 0 
   22.646444 4.815085e-03 2.816600e-18 0 
   22.698645 4.797636e-03 2.793500e-18 0 
   22.750967 4.779923e-03 2.770400e-18 0 
   22.803411 4.764372e-03 2.748700e-18 0 
   22.855998 4.749456e-03 2.727500e-18 0 
   22.908683 4.734116e-03 2.706200e-18 0 
   22.961489 4.718533e-03 2.684900e-18 0 
   23.014417 4.702528e-03 2.663500e-18 0 
   23.067467 4.686275e-03 2.642100e-18 0 
   23.120639 4.669594e-03 2.620600e-18 0 
   23.173934 4.652659e-03 2.599100e-18 0 
   23.227378 4.635659e-03 2.577700e-18 0 
   23.280919 4.621463e-03 2.558000e-18 0 
   23.334583 4.606674e-03 2.538100e-18 0 
   23.388370 4.591651e-03 2.518200e-18 0 
   23.442281 4.576391e-03 2.498300e-18 0 
   23.496319 4.560708e-03 2.478300e-18 0 
   23.550505 4.544792e-03 2.458300e-18 0 
   23.604791 4.528438e-03 2.438200e-18 0 
   23.659202 4.511835e-03 2.418100e-18 0 
   23.713738 4.496669e-03 2.398900e-18 0 
   23.768398 4.482585e-03 2.380400e-18 0 
   23.823187 4.468276e-03 2.361900e-18 0 
   23.878102 4.453549e-03 2.343300e-18 0 
   23.933167 4.438600e-03 2.324700e-18 0 
   23.988336 4.423217e-03 2.306000e-18 0 
   24.043630 4.407598e-03 2.287300e-18 0 
   24.099053 4.391546e-03 2.268500e-18 0 
   24.154603 4.375448e-03 2.249800e-18 0 
   24.210281 4.361646e-03 2.232400e-18 0 
   24.266114 4.347830e-03 2.215100e-18 0 
   24.322048 4.333784e-03 2.197800e-18 0 
   24.378113 4.319515e-03 2.180500e-18 0 
   24.434306 4.304824e-03 2.163100e-18 0 
   24.490630 4.289705e-03 2.145600e-18 0 
   24.547081 4.274354e-03 2.128100e-18 0 
   24.603664 4.258770e-03 2.110600e-18 0 
   24.660405 4.243975e-03 2.093600e-18 0 
   24.717248 4.230776e-03 2.077500e-18 0 
   24.774223 4.217159e-03 2.061300e-18 0 
   24.831330 4.203328e-03 2.045100e-18 0 
   24.888567 4.189278e-03 2.028900e-18 0 
   24.945937 4.175009e-03 2.012700e-18 0 
   25.003441 4.160312e-03 1.996400e-18 0 
   25.061102 4.145188e-03 1.980000e-18 0 
   25.118870 4.130038e-03 1.963700e-18 0 
   25.703948 3.993008e-03 1.813100e-18 0 
   26.302684 3.860649e-03 1.674100e-18 0 
   26.915337 3.732050e-03 1.545500e-18 0 
   27.542291 3.607290e-03 1.426600e-18 0 
   28.183816 3.486038e-03 1.316600e-18 0 
   28.840319 3.368367e-03 1.214900e-18 0 
   29.512078 3.255949e-03 1.121500e-18 0 
   30.199519 3.148262e-03 1.035600e-18 0 
   30.902938 3.043463e-03 9.560700e-19 0 
   31.622778 2.941734e-03 8.825200e-19 0 
   32.359381 2.842922e-03 8.144900e-19 0 
   33.113109 2.746970e-03 7.515800e-19 0 
   33.884431 2.655184e-03 6.937700e-19 0 
   34.673681 1.523229e-02 3.800900e-18 0 
