# NGC 3265       
# 
# An Atlas of Galaxy Spectral Energy Distributions from the Ultraviolet to the Mid-Infrared
# Brown et al. (2014)
# http://dx.doi.org/10.5072/03/529D3551F0117
# http://dx.doi.org/10.17909/t9-5bxk-dh29
# 
# The Spectral Energy Distributions of Active Galactic Nuclei
# Brown et al. (2019)
# http://dx.doi.org/10.17909/t9-3dbt-8734
# 
# Column 1: Observed wavelength (um)
# Column 2: f_nu (Jy)
# Column 3: f_lam (erg/s/cm2/A)
# Column 4: Source (0 = model, 1 = Optical Spectrun, 2 = Akari, 3 = Spitzer IRS)
# 
    0.010046 7.813390e-14 2.322600e-22 0 
    0.010257 1.044486e-13 2.978400e-22 0 
    0.010447 1.267186e-13 3.483200e-22 0 
    0.010641 1.598896e-13 4.236200e-22 0 
    0.010839 2.040970e-13 5.211700e-22 0 
    0.011041 3.295179e-13 8.109300e-22 0 
    0.011455 4.975750e-13 1.137600e-21 0 
    0.011858 7.045138e-13 1.503100e-21 0 
    0.012162 2.177051e-12 4.415500e-21 0 
    0.012560 3.089131e-12 5.874600e-21 0 
    0.012764 3.646143e-12 6.714000e-21 0 
    0.012853 3.970738e-12 7.210800e-21 0 
    0.013152 4.975572e-12 8.629400e-21 0 
    0.013243 5.752191e-12 9.839700e-21 0 
    0.013459 6.651029e-12 1.101500e-20 0 
    0.013772 8.868874e-12 1.402800e-20 0 
    0.014060 1.093520e-11 1.659500e-20 0 
    0.014355 1.967312e-11 2.864100e-20 0 
    0.014757 3.538820e-11 4.875100e-20 0 
    0.015171 4.548714e-11 5.929000e-20 0 
    0.015560 5.819443e-11 7.210800e-20 0 
    0.015959 7.393896e-11 8.709300e-20 0 
    0.016255 8.807149e-11 9.999600e-20 0 
    0.016672 1.108765e-10 1.196700e-19 0 
    0.017061 1.373596e-10 1.415700e-19 0 
    0.017378 1.610136e-10 1.599500e-19 0 
    0.017783 1.971831e-10 1.870600e-19 0 
    0.018072 2.279648e-10 2.094000e-19 0 
    0.018281 2.522615e-10 2.264500e-19 0 
    0.018664 3.032923e-10 2.612000e-19 0 
    0.019187 3.800810e-10 3.097300e-19 0 
    0.019498 4.353476e-10 3.435400e-19 0 
    0.019907 5.162585e-10 3.908200e-19 0 
    0.020277 6.079500e-10 4.435900e-19 0 
    0.020606 6.868305e-10 4.852700e-19 0 
    0.021086 8.088071e-10 5.457300e-19 0 
    0.021677 1.039574e-09 6.637100e-19 0 
    0.022080 1.204645e-09 7.412800e-19 0 
    0.022387 1.329992e-09 7.961200e-19 0 
    0.022803 1.534070e-09 8.850801e-19 0 
    0.023121 2.448379e-09 1.374000e-18 0 
    0.023496 4.444836e-09 2.415400e-18 0 
    0.024099 6.264097e-09 3.235800e-18 0 
    0.024717 6.884164e-09 3.380500e-18 0 
    0.025293 8.088393e-09 3.793000e-18 0 
    0.025823 7.479581e-09 3.365000e-18 0 
    0.026122 9.222990e-09 4.054900e-18 0 
    0.026546 1.037186e-08 4.415500e-18 0 
    0.027040 1.134690e-08 4.655700e-18 0 
    0.027542 1.235520e-08 4.886300e-18 0 
    0.028054 1.342301e-08 5.116600e-18 0 
    0.028510 1.451616e-08 5.357700e-18 0 
    0.029107 1.530583e-08 5.419800e-18 0 
    0.029717 1.709505e-08 5.807400e-18 0 
    0.030200 1.781853e-08 5.861100e-18 0 
    0.030903 1.999219e-08 6.280300e-18 0 
    0.031915 2.343418e-08 6.902100e-18 0 
    0.032961 2.659864e-08 7.344800e-18 0 
    0.033963 2.970802e-08 7.726500e-18 0 
    0.034914 3.295045e-08 8.109300e-18 0 
    0.035892 3.637935e-08 8.471900e-18 0 
    0.036728 3.988923e-08 8.871200e-18 0 
    0.037670 4.343600e-08 9.182900e-18 0 
    0.038637 4.590564e-08 9.225300e-18 0 
    0.039719 5.150598e-08 9.794500e-18 0 
    0.040644 5.595654e-08 1.016200e-17 0 
    0.041591 5.996102e-08 1.039900e-17 0 
    0.042364 6.307204e-08 1.054300e-17 0 
    0.043152 6.620368e-08 1.066600e-17 0 
    0.044259 7.175954e-08 1.099000e-17 0 
    0.045290 7.618097e-08 1.114200e-17 0 
    0.046238 8.014472e-08 1.124600e-17 0 
    0.047206 8.469430e-08 1.140200e-17 0 
    0.048195 8.992171e-08 1.161400e-17 0 
    0.049204 9.372628e-08 1.161400e-17 0 
    0.050234 9.973534e-08 1.185700e-17 0 
    0.050816 1.044354e-07 1.213300e-17 0 
    0.051404 1.244116e-07 1.412500e-17 0 
    0.052240 1.293827e-07 1.422300e-17 0 
    0.053211 1.351621e-07 1.432100e-17 0 
    0.054200 1.379907e-07 1.409200e-17 0 
    0.055208 1.523555e-07 1.499600e-17 0 
    0.056234 1.686013e-07 1.599500e-17 0 
    0.057280 1.827516e-07 1.671000e-17 0 
    0.058210 1.865768e-07 1.651900e-17 0 
    0.059293 2.055255e-07 1.753800e-17 0 
    0.060256 2.117716e-07 1.749800e-17 0 
    0.061235 2.217462e-07 1.774100e-17 0 
    0.062230 2.569581e-07 1.990600e-17 0 
    0.063241 2.728140e-07 2.046400e-17 0 
    0.064269 2.883092e-07 2.094000e-17 0 
    0.065313 3.132226e-07 2.202800e-17 0 
    0.066069 3.272380e-07 2.249000e-17 0 
    0.066834 3.498236e-07 2.349500e-17 0 
    0.067764 3.680150e-07 2.404300e-17 0 
    0.068865 3.757078e-07 2.376700e-17 0 
    0.069823 4.404139e-07 2.710100e-17 0 
    0.070795 4.373913e-07 2.618100e-17 0 
    0.071945 5.150721e-07 2.985300e-17 0 
    0.072946 5.455921e-07 3.076000e-17 0 
    0.073790 5.765673e-07 3.176700e-17 0 
    0.074817 6.351204e-07 3.403900e-17 0 
    0.075858 6.821309e-07 3.556200e-17 0 
    0.076913 7.192198e-07 3.647400e-17 0 
    0.077804 7.977454e-07 3.953500e-17 0 
    0.078886 8.666773e-07 4.178100e-17 0 
    0.079799 9.243827e-07 4.354900e-17 0 
    0.080910 9.905182e-07 4.539200e-17 0 
    0.081846 1.049183e-06 4.698700e-17 0 
    0.082794 1.153077e-06 5.046400e-17 0 
    0.083946 1.063805e-06 4.528800e-17 0 
    0.084918 1.290805e-06 5.370100e-17 0 
    0.085901 1.370425e-06 5.571600e-17 0 
    0.086896 1.495761e-06 5.942700e-17 0 
    0.087902 1.625015e-06 6.309300e-17 0 
    0.088920 1.773620e-06 6.729500e-17 0 
    0.089950 1.909261e-06 7.079200e-17 0 
    0.090991 1.994609e-06 7.227400e-17 0 
    0.091833 2.889811e-06 1.028000e-16 0 
    0.092897 1.686014e-05 5.861100e-16 0 
    0.093972 3.748353e-05 1.273400e-15 0 
    0.094842 7.427775e-05 2.477300e-15 0 
    0.095940 1.054036e-04 3.435400e-15 0 
    0.096828 1.299748e-04 4.158900e-15 0 
    0.097949 2.850091e-05 8.912100e-16 0 
    0.098855 1.379915e-04 4.236200e-15 0 
    0.100000 1.412067e-04 4.236200e-15 0 
    0.100925 1.861465e-04 5.482500e-15 0 
    0.101859 1.737233e-04 5.023200e-15 0 
    0.103039 7.258867e-05 2.051100e-15 0 
    0.103992 1.386326e-04 3.845800e-15 0 
    0.104954 2.488036e-04 6.776100e-15 0 
    0.105925 2.528451e-04 6.760500e-15 0 
    0.106905 2.192097e-04 5.754200e-15 0 
    0.107895 2.569591e-04 6.621900e-15 0 
    0.108893 2.217466e-04 5.610200e-15 0 
    0.109901 2.772437e-04 6.886200e-15 0 
    0.110918 2.734421e-04 6.667800e-15 0 
    0.111944 2.747021e-04 6.576300e-15 0 
    0.112980 2.581446e-04 6.067100e-15 0 
    0.114025 3.110700e-04 7.177600e-15 0 
    0.115080 2.929927e-04 6.637100e-15 0 
    0.115878 3.103592e-04 6.934000e-15 0 
    0.116950 3.279908e-04 7.194200e-15 0 
    0.118032 2.534289e-04 5.457300e-15 0 
    0.119124 3.279904e-04 6.934000e-15 0 
    0.119950 2.499532e-04 5.211700e-15 0 
    0.121060 1.958222e-04 4.008500e-15 0 
    0.121899 1.086071e-04 2.192700e-15 0 
    0.123027 2.365146e-04 4.687900e-15 0 
    0.124165 3.482226e-04 6.776100e-15 0 
    0.125026 3.898184e-04 7.481400e-15 0 
    0.126183 3.907189e-04 7.361800e-15 0 
    0.127057 3.530687e-04 6.561200e-15 0 
    0.127938 4.353705e-04 7.979600e-15 0 
    0.129122 4.601107e-04 8.279100e-15 0 
    0.130017 4.007362e-04 7.111800e-15 0 
    0.131220 4.044440e-04 7.046600e-15 0 
    0.132130 4.806863e-04 8.260000e-15 0 
    0.133045 4.719079e-04 7.998000e-15 0 
    0.133968 4.424459e-04 7.395700e-15 0 
    0.135207 5.056566e-04 8.298100e-15 0 
    0.136144 5.021800e-04 8.128000e-15 0 
    0.137088 4.719078e-04 7.533200e-15 0 
    0.138038 4.952897e-04 7.798000e-15 0 
    0.138995 5.091619e-04 7.906400e-15 0 
    0.139959 4.622368e-04 7.079200e-15 0 
    0.141254 4.873711e-04 7.327900e-15 0 
    0.142233 5.091678e-04 7.550600e-15 0 
    0.143219 5.210309e-04 7.620500e-15 0 
    0.144212 5.282810e-04 7.620500e-15 0 
    0.144877 5.544475e-04 7.924700e-15 0 
    0.145211 5.621590e-04 7.998000e-15 0 
    0.146218 5.608681e-04 7.870100e-15 0 
    0.147231 5.380947e-04 7.447000e-15 0 
    0.148252 5.430779e-04 7.412800e-15 0 
    0.149279 5.557239e-04 7.481400e-15 0 
    0.150314 5.699788e-04 7.568000e-15 0 
    0.151008 5.544498e-04 7.294300e-15 0 
    0.151705 5.162515e-04 6.729500e-15 0 
    0.152405 5.468400e-04 7.062900e-15 0 
    0.153109 5.405809e-04 6.918000e-15 0 
    0.154170 4.952936e-04 6.251500e-15 0 
    0.155239 5.331615e-04 6.637100e-15 0 
    0.156315 5.162496e-04 6.338400e-15 0 
    0.157036 5.319310e-04 6.471100e-15 0 
    0.158125 5.686716e-04 6.823100e-15 0 
    0.159221 5.940999e-04 7.030400e-15 0 
    0.160325 6.164016e-04 7.194200e-15 0 
    0.161065 6.051475e-04 6.998100e-15 0 
    0.162181 6.135626e-04 6.998100e-15 0 
    0.163305 5.995973e-04 6.745000e-15 0 
    0.164059 6.322058e-04 7.046600e-15 0 
    0.165196 6.469300e-04 7.111800e-15 0 
    0.166341 6.178193e-04 6.698600e-15 0 
    0.167109 6.696701e-04 7.194200e-15 0 
    0.167880 6.235267e-04 6.637100e-15 0 
    0.168267 6.821168e-04 7.227400e-15 0 
    0.169434 7.093526e-04 7.412800e-15 0 
    0.170216 6.836971e-04 7.079200e-15 0 
    0.171396 6.727630e-04 6.870400e-15 0 
    0.172187 6.574425e-04 6.652400e-15 0 
    0.173380 6.619951e-04 6.606600e-15 0 
    0.174181 7.012360e-04 6.934000e-15 0 
    0.175388 6.963972e-04 6.791700e-15 0 
    0.176198 7.376673e-04 7.128200e-15 0 
    0.177419 6.963977e-04 6.637100e-15 0 
    0.178238 7.225386e-04 6.823100e-15 0 
    0.179473 7.410683e-04 6.902100e-15 0 
    0.180302 7.813818e-04 7.210800e-15 0 
    0.181134 7.849788e-04 7.177600e-15 0 
    0.182390 7.548525e-04 6.807400e-15 0 
    0.183231 7.706485e-04 6.886200e-15 0 
    0.184502 7.618373e-04 6.714000e-15 0 
    0.185353 7.175654e-04 6.265900e-15 0 
    0.186209 7.292245e-04 6.309300e-15 0 
    0.187499 7.583239e-04 6.471100e-15 0 
    0.188365 8.051197e-04 6.807400e-15 0 
    0.189234 7.653447e-04 6.411800e-15 0 
    0.190546 7.513773e-04 6.208400e-15 0 
    0.191426 7.922536e-04 6.486100e-15 0 
    0.192309 7.795718e-04 6.323800e-15 0 
    0.193197 7.724301e-04 6.208400e-15 0 
    0.194536 7.922442e-04 6.280300e-15 0 
    0.195434 8.411181e-04 6.606600e-15 0 
    0.196336 8.069730e-04 6.280300e-15 0 
    0.197697 8.726959e-04 6.698600e-15 0 
    0.198610 8.992095e-04 6.838800e-15 0 
    0.199067 8.666836e-04 6.561200e-15 0 
    0.200447 8.587324e-04 6.411800e-15 0 
    0.201372 8.807608e-04 6.516000e-15 0 
    0.202302 8.726945e-04 6.397100e-15 0 
    0.203236 9.012861e-04 6.546100e-15 0 
    0.204174 8.848349e-04 6.367700e-15 0 
    0.205589 9.201490e-04 6.531000e-15 0 
    0.206538 8.868728e-04 6.237100e-15 0 
    0.207491 9.054373e-04 6.309300e-15 0 
    0.208449 9.702026e-04 6.698600e-15 0 
    0.208930 9.568899e-04 6.576300e-15 0 
    0.209411 9.859609e-04 6.745000e-15 0 
    0.210378 9.524958e-04 6.456300e-15 0 
    0.211349 9.679642e-04 6.501000e-15 0 
    0.212324 9.859620e-04 6.561200e-15 0 
    0.213304 1.001970e-03 6.606600e-15 0 
    0.214289 9.590957e-04 6.265900e-15 0 
    0.215278 9.927944e-04 6.426600e-15 0 
    0.216272 1.025324e-03 6.576300e-15 0 
    0.217270 1.001984e-03 6.367700e-15 0 
    0.218273 1.006603e-03 6.338400e-15 0 
    0.219281 1.018262e-03 6.353000e-15 0 
    0.220293 1.063804e-03 6.576300e-15 0 
    0.221309 1.046784e-03 6.411800e-15 0 
    0.222331 1.008921e-03 6.123200e-15 0 
    0.223357 1.004286e-03 6.039200e-15 0 
    0.224388 1.078597e-03 6.426600e-15 0 
    0.225424 1.049198e-03 6.194100e-15 0 
    0.226464 1.018265e-03 5.956400e-15 0 
    0.227510 1.034819e-03 5.997700e-15 0 
    0.228560 1.071175e-03 6.151500e-15 0 
    0.229615 1.113932e-03 6.338400e-15 0 
    0.230675 1.067163e-03 6.016600e-15 0 
    0.231739 1.096024e-03 6.122700e-15 0 
    0.232274 1.066885e-03 5.932500e-15 0 
    0.233346 9.156009e-04 5.044600e-15 0 
    0.234423 1.021652e-03 5.577300e-15 0 
    0.235505 9.837772e-04 5.321300e-15 0 
    0.236592 1.085146e-03 5.815800e-15 0 
    0.237684 1.007151e-03 5.348300e-15 0 
    0.238781 1.056057e-03 5.556600e-15 0 
    0.239332 9.749787e-04 5.106400e-15 0 
    0.240436 1.038952e-03 5.391600e-15 0 
    0.241546 1.023770e-03 5.264100e-15 0 
    0.242661 1.053932e-03 5.369500e-15 0 
    0.243781 1.143972e-03 5.774800e-15 0 
    0.244343 1.113590e-03 5.595600e-15 0 
    0.245471 1.181239e-03 5.881100e-15 0 
    0.246604 1.185641e-03 5.848900e-15 0 
    0.247742 1.181858e-03 5.776800e-15 0 
    0.248313 1.145178e-03 5.571800e-15 0 
    0.249460 1.149477e-03 5.541400e-15 0 
    0.250611 1.109466e-03 5.299500e-15 0 
    0.251768 1.255276e-03 5.941000e-15 0 
    0.252348 1.111866e-03 5.238100e-15 0 
    0.252930 1.117810e-03 5.241900e-15 0 
    0.253513 1.098183e-03 5.126200e-15 0 
    0.254683 1.141056e-03 5.277500e-15 0 
    0.255859 1.150636e-03 5.273000e-15 0 
    0.256448 1.253865e-03 5.719700e-15 0 
    0.257632 1.221463e-03 5.520800e-15 0 
    0.258821 1.301717e-03 5.829600e-15 0 
    0.259418 1.290747e-03 5.753900e-15 0 
    0.260615 1.280771e-03 5.657100e-15 0 
    0.261818 1.247723e-03 5.460600e-15 0 
    0.262422 1.231518e-03 5.364900e-15 0 
    0.263633 1.312436e-03 5.665000e-15 0 
    0.264850 1.414905e-03 6.051300e-15 0 
    0.265461 1.563320e-03 6.655300e-15 0 
    0.266686 1.666091e-03 7.027800e-15 0 
    0.267917 1.504355e-03 6.287400e-15 0 
    0.268534 1.576408e-03 6.558300e-15 0 
    0.269774 1.626758e-03 6.705700e-15 0 
    0.270396 1.512363e-03 6.205500e-15 0 
    0.271644 1.597022e-03 6.492800e-15 0 
    0.272898 1.496119e-03 6.026800e-15 0 
    0.273527 1.473322e-03 5.907700e-15 0 
    0.274789 1.573834e-03 6.252900e-15 0 
    0.275423 1.359220e-03 5.375400e-15 0 
    0.276694 1.438656e-03 5.637400e-15 0 
    0.277971 1.540361e-03 5.980600e-15 0 
    0.278612 1.610479e-03 6.224100e-15 0 
    0.279898 1.474439e-03 5.646100e-15 0 
    0.280543 1.191138e-03 4.540300e-15 0 
    0.281838 1.278283e-03 4.827800e-15 0 
    0.282488 1.629186e-03 6.124800e-15 0 
    0.283792 1.780935e-03 6.633900e-15 0 
    0.284446 1.733729e-03 6.428400e-15 0 
    0.285759 1.658288e-03 6.092300e-15 0 
    0.287078 1.532292e-03 5.577800e-15 0 
    0.287740 1.805854e-03 6.543400e-15 0 
    0.289068 1.898323e-03 6.815400e-15 0 
    0.289734 1.878063e-03 6.711700e-15 0 
    0.291072 1.942668e-03 6.878900e-15 0 
    0.292415 2.183153e-03 7.659600e-15 0 
    0.294442 2.114084e-03 7.315500e-15 0 
    0.296483 2.094914e-03 7.149700e-15 0 
    0.298538 2.168766e-03 7.300200e-15 0 
    0.300608 2.214459e-03 7.351700e-15 0 
    0.301995 2.259261e-03 7.431700e-15 0 
    0.304089 2.317548e-03 7.518800e-15 0 
    0.306196 2.393841e-03 7.659800e-15 0 
    0.308319 2.466981e-03 7.785500e-15 0 
    0.310456 2.501715e-03 7.786800e-15 0 
    0.312608 2.614046e-03 8.024800e-15 0 
    0.314051 2.570608e-03 7.819100e-15 0 
    0.316228 2.612904e-03 7.838700e-15 0 
    0.318420 2.730332e-03 8.078600e-15 0 
    0.320627 2.608010e-03 7.610800e-15 0 
    0.322107 2.760865e-03 7.983000e-15 0 
    0.324340 2.631173e-03 7.503600e-15 0 
    0.326588 3.000942e-03 8.440700e-15 0 
    0.328095 3.228493e-03 8.997500e-15 0 
    0.330370 3.251737e-03 8.937900e-15 0 
    0.332660 3.252671e-03 8.817800e-15 0 
    0.333426 3.181361e-03 8.584900e-15 0 
    0.334195 3.243295e-03 8.711800e-15 0 
    0.334966 3.486310e-03 9.321500e-15 0 
    0.335738 3.263958e-03 8.686900e-15 0 
    0.336512 3.444431e-03 9.125100e-15 0 
    0.337287 3.479313e-03 9.175200e-15 0 
    0.338065 2.950343e-03 7.744500e-15 0 
    0.338844 2.966558e-03 7.751300e-15 0 
    0.339625 3.331437e-03 8.664700e-15 0 
    0.340408 3.507616e-03 9.081000e-15 0 
    0.341193 3.306701e-03 8.521500e-15 0 
    0.341979 3.645632e-03 9.351800e-15 0 
    0.342768 3.389662e-03 8.655200e-15 0 
    0.343558 3.536202e-03 8.987900e-15 0 
    0.344350 3.605134e-03 9.121000e-15 0 
    0.345144 3.616616e-03 9.108000e-15 0 
    0.345939 3.102303e-03 7.776900e-15 0 
    0.346737 3.811302e-03 9.510300e-15 0 
    0.347536 3.560028e-03 8.842500e-15 0 
    0.348337 3.612778e-03 8.932300e-15 0 
    0.349140 3.533682e-03 8.696600e-15 0 
    0.349945 3.703522e-03 9.072700e-15 0 
    0.350752 3.622447e-03 8.833300e-15 0 
    0.351560 3.486476e-03 8.462700e-15 0 
    0.352371 3.835094e-03 9.266100e-15 0 
    0.353183 3.541319e-03 8.517000e-15 0 
    0.353997 3.737277e-03 8.947000e-15 0 
    0.354813 3.962249e-03 9.442000e-15 0 
    0.355631 4.095757e-03 9.715300e-15 0 
    0.356451 4.282678e-03 1.011200e-14 0 
    0.357273 4.056186e-03 9.533200e-15 0 
    0.358096 4.251172e-03 9.945600e-15 0 
    0.358922 3.563686e-03 8.298900e-15 0 
    0.359749 3.743627e-03 8.677900e-15 0 
    0.360579 3.233615e-03 7.461200e-15 0 
    0.361410 4.112265e-03 9.445000e-15 0 
    0.362243 3.948891e-03 9.028100e-15 0 
    0.363078 3.907268e-03 8.891900e-15 0 
    0.363500 4.303591e-03 9.771100e-15 1 
    0.363775 2.772934e-03 6.286300e-15 1 
    0.364050 4.085974e-03 9.249000e-15 1 
    0.364325 3.892210e-03 8.797100e-15 1 
    0.364600 4.769642e-03 1.076400e-14 1 
    0.364875 5.202424e-03 1.172300e-14 1 
    0.365150 4.691153e-03 1.055500e-14 1 
    0.365425 4.621216e-03 1.038200e-14 1 
    0.365700 4.685235e-03 1.051000e-14 1 
    0.365975 3.243837e-03 7.265700e-15 1 
    0.366250 4.686372e-03 1.048100e-14 1 
    0.366525 3.826109e-03 8.544200e-15 1 
    0.366800 3.356784e-03 7.484900e-15 1 
    0.367075 3.685295e-03 8.205100e-15 1 
    0.367350 4.338604e-03 9.645200e-15 1 
    0.367625 4.154454e-03 9.222000e-15 1 
    0.367900 3.959812e-03 8.776800e-15 1 
    0.368175 4.484720e-03 9.925400e-15 1 
    0.368450 4.120674e-03 9.106100e-15 1 
    0.368725 3.921032e-03 8.652000e-15 1 
    0.369000 4.595434e-03 1.012500e-14 1 
    0.369275 5.305470e-03 1.167200e-14 1 
    0.369550 4.348983e-03 9.553500e-15 1 
    0.369825 4.446957e-03 9.754200e-15 1 
    0.370100 5.249301e-03 1.149700e-14 1 
    0.370375 4.821794e-03 1.054500e-14 1 
    0.370650 4.328614e-03 9.452400e-15 1 
    0.370925 3.373547e-03 7.355900e-15 1 
    0.371200 3.994516e-03 8.697000e-15 1 
    0.371475 5.032169e-03 1.094000e-14 1 
    0.371750 4.273361e-03 9.276600e-15 1 
    0.372025 4.028115e-03 8.731300e-15 1 
    0.372300 3.862754e-03 8.360500e-15 1 
    0.372575 3.676439e-03 7.945500e-15 1 
    0.372850 4.821577e-03 1.040500e-14 1 
    0.373125 3.946116e-03 8.503200e-15 1 
    0.373400 4.483061e-03 9.646000e-15 1 
    0.373675 4.759158e-03 1.022500e-14 1 
    0.373950 6.903366e-03 1.481000e-14 1 
    0.374225 9.520215e-03 2.039400e-14 1 
    0.374500 1.162020e-02 2.485600e-14 1 
    0.374775 1.079032e-02 2.304700e-14 1 
    0.375050 7.003586e-03 1.493700e-14 1 
    0.375325 4.681495e-03 9.969900e-15 1 
    0.375600 4.915066e-03 1.045200e-14 1 
    0.375875 4.824781e-03 1.024500e-14 1 
    0.376150 3.527364e-03 7.479100e-15 1 
    0.376425 4.236184e-03 8.968900e-15 1 
    0.376700 4.635021e-03 9.799000e-15 1 
    0.376975 4.232798e-03 8.935600e-15 1 
    0.377250 4.705113e-03 9.918200e-15 1 
    0.377525 4.919017e-03 1.035400e-14 1 
    0.377800 5.029906e-03 1.057200e-14 1 
    0.378075 4.650957e-03 9.761300e-15 1 
    0.378350 4.357256e-03 9.131600e-15 1 
    0.378625 3.931658e-03 8.227700e-15 1 
    0.378900 4.809435e-03 1.005000e-14 1 
    0.379175 5.532411e-03 1.154400e-14 1 
    0.379450 5.676742e-03 1.182800e-14 1 
    0.379725 5.257688e-03 1.093900e-14 1 
    0.380000 5.512229e-03 1.145200e-14 1 
    0.380275 5.282570e-03 1.095900e-14 1 
    0.380550 5.282489e-03 1.094300e-14 1 
    0.380825 4.801576e-03 9.932400e-15 1 
    0.381100 4.469433e-03 9.232000e-15 1 
    0.381375 4.541094e-03 9.366500e-15 1 
    0.381650 4.511814e-03 9.292700e-15 1 
    0.381925 4.818658e-03 9.910400e-15 1 
    0.382200 5.154565e-03 1.058600e-14 1 
    0.382475 5.133703e-03 1.052800e-14 1 
    0.382750 5.788607e-03 1.185400e-14 1 
    0.383025 5.812088e-03 1.188500e-14 1 
    0.383300 5.171055e-03 1.055900e-14 1 
    0.383575 4.915606e-03 1.002300e-14 1 
    0.383850 5.182959e-03 1.055300e-14 1 
    0.384125 4.926270e-03 1.001600e-14 1 
    0.384400 4.646173e-03 9.433000e-15 1 
    0.384675 4.846226e-03 9.825100e-15 1 
    0.384950 4.687485e-03 9.489700e-15 1 
    0.385225 3.833128e-03 7.749000e-15 1 
    0.385500 3.770837e-03 7.612200e-15 1 
    0.385775 4.210383e-03 8.487400e-15 1 
    0.386050 4.963597e-03 9.991500e-15 1 
    0.386325 4.961966e-03 9.974000e-15 1 
    0.386600 5.247027e-03 1.053200e-14 1 
    0.386875 5.805787e-03 1.163700e-14 1 
    0.387150 5.992907e-03 1.199500e-14 1 
    0.387425 5.802794e-03 1.159800e-14 1 
    0.387700 6.099632e-03 1.217400e-14 1 
    0.387975 6.447972e-03 1.285100e-14 1 
    0.388250 6.292812e-03 1.252400e-14 1 
    0.388525 5.842836e-03 1.161200e-14 1 
    0.388800 6.050649e-03 1.200800e-14 1 
    0.389075 5.817509e-03 1.152900e-14 1 
    0.389350 5.377524e-03 1.064200e-14 1 
    0.389625 5.402834e-03 1.067700e-14 1 
    0.389900 5.366377e-03 1.059000e-14 1 
    0.390175 5.265861e-03 1.037700e-14 1 
    0.390450 5.218913e-03 1.027000e-14 1 
    0.390725 5.158585e-03 1.013700e-14 1 
    0.391000 4.693803e-03 9.210700e-15 1 
    0.391275 4.834725e-03 9.473900e-15 1 
    0.391550 5.364877e-03 1.049800e-14 1 
    0.391825 5.785915e-03 1.130600e-14 1 
    0.392100 6.113823e-03 1.193000e-14 1 
    0.392375 5.796524e-03 1.129500e-14 1 
    0.392650 5.806194e-03 1.129800e-14 1 
    0.392925 6.304260e-03 1.225000e-14 1 
    0.393200 6.690327e-03 1.298200e-14 1 
    0.393475 6.062336e-03 1.174700e-14 1 
    0.393750 6.005180e-03 1.162000e-14 1 
    0.394025 5.936978e-03 1.147200e-14 1 
    0.394300 5.755592e-03 1.110600e-14 1 
    0.394575 5.365577e-03 1.033900e-14 1 
    0.394850 4.629177e-03 8.907600e-15 1 
    0.395125 3.942541e-03 7.575800e-15 1 
    0.395400 4.026932e-03 7.727200e-15 1 
    0.395675 4.442249e-03 8.512300e-15 1 
    0.395950 5.117391e-03 9.792400e-15 1 
    0.396225 5.453457e-03 1.042100e-14 1 
    0.396500 5.908560e-03 1.127500e-14 1 
    0.396775 6.309811e-03 1.202400e-14 1 
    0.397050 6.274944e-03 1.194100e-14 1 
    0.397325 5.809511e-03 1.104000e-14 1 
    0.397600 6.039403e-03 1.146100e-14 1 
    0.397875 5.523244e-03 1.046700e-14 1 
    0.398150 4.838346e-03 9.156400e-15 1 
    0.398425 4.564428e-03 8.626100e-15 1 
    0.398700 4.405411e-03 8.314100e-15 1 
    0.398975 4.659070e-03 8.780700e-15 1 
    0.399250 5.145079e-03 9.683300e-15 1 
    0.399525 5.293486e-03 9.948900e-15 1 
    0.399800 5.773422e-03 1.083600e-14 1 
    0.400075 6.436546e-03 1.206400e-14 1 
    0.400350 6.912882e-03 1.293900e-14 1 
    0.400625 7.473968e-03 1.397000e-14 1 
    0.400900 7.846390e-03 1.464600e-14 1 
    0.401175 7.439247e-03 1.386700e-14 1 
    0.401450 7.084686e-03 1.318800e-14 1 
    0.401725 7.327863e-03 1.362200e-14 1 
    0.402000 6.997453e-03 1.299000e-14 1 
    0.402275 7.155370e-03 1.326500e-14 1 
    0.402550 7.117623e-03 1.317700e-14 1 
    0.402825 7.242020e-03 1.338900e-14 1 
    0.403100 7.249203e-03 1.338400e-14 1 
    0.403375 7.852452e-03 1.447800e-14 1 
    0.403650 7.812110e-03 1.438400e-14 1 
    0.403925 7.853758e-03 1.444100e-14 1 
    0.404200 7.491954e-03 1.375700e-14 1 
    0.404475 8.776596e-03 1.609400e-14 1 
    0.404750 7.941572e-03 1.454300e-14 1 
    0.405025 7.574516e-03 1.385200e-14 1 
    0.405300 7.556332e-03 1.380000e-14 1 
    0.405575 7.798522e-03 1.422300e-14 1 
    0.405850 7.529636e-03 1.371400e-14 1 
    0.406125 7.874117e-03 1.432200e-14 1 
    0.406400 7.595753e-03 1.379700e-14 1 
    0.406675 8.077381e-03 1.465200e-14 1 
    0.406950 8.271030e-03 1.498300e-14 1 
    0.407225 8.179950e-03 1.479800e-14 1 
    0.407500 7.693386e-03 1.389900e-14 1 
    0.407775 8.228665e-03 1.484600e-14 1 
    0.408050 7.286805e-03 1.312900e-14 1 
    0.408325 7.577291e-03 1.363400e-14 1 
    0.408600 8.490166e-03 1.525600e-14 1 
    0.408875 8.297640e-03 1.489000e-14 1 
    0.409150 7.544328e-03 1.352000e-14 1 
    0.409425 7.218656e-03 1.291900e-14 1 
    0.409700 7.128204e-03 1.274000e-14 1 
    0.409975 7.171392e-03 1.280000e-14 1 
    0.410250 7.785792e-03 1.387800e-14 1 
    0.410525 8.581026e-03 1.527500e-14 1 
    0.410800 8.019315e-03 1.425600e-14 1 
    0.411075 7.692090e-03 1.365600e-14 1 
    0.411350 7.552354e-03 1.339000e-14 1 
    0.411625 7.564714e-03 1.339400e-14 1 
    0.411900 7.270000e-03 1.285500e-14 1 
    0.412175 6.675475e-03 1.178800e-14 1 
    0.412450 7.059205e-03 1.244900e-14 1 
    0.412725 7.339465e-03 1.292600e-14 1 
    0.413000 7.994569e-03 1.406100e-14 1 
    0.413275 7.542931e-03 1.324900e-14 1 
    0.413550 7.568934e-03 1.327700e-14 1 
    0.413825 7.975166e-03 1.397100e-14 1 
    0.414100 8.235556e-03 1.440800e-14 1 
    0.414375 8.351238e-03 1.459100e-14 1 
    0.414650 8.644873e-03 1.508400e-14 1 
    0.414925 8.018194e-03 1.397200e-14 1 
    0.415200 8.186850e-03 1.424700e-14 1 
    0.415475 8.230496e-03 1.430400e-14 1 
    0.415750 8.630879e-03 1.498000e-14 1 
    0.416025 8.431724e-03 1.461500e-14 1 
    0.416300 7.953576e-03 1.376800e-14 1 
    0.416575 8.207036e-03 1.418800e-14 1 
    0.416850 8.378896e-03 1.446600e-14 1 
    0.417125 8.029209e-03 1.384400e-14 1 
    0.417400 7.799372e-03 1.343000e-14 1 
    0.417675 8.500484e-03 1.461800e-14 1 
    0.417950 8.172798e-03 1.403600e-14 1 
    0.418225 8.710625e-03 1.494000e-14 1 
    0.418500 8.261460e-03 1.415100e-14 1 
    0.418775 8.688538e-03 1.486300e-14 1 
    0.419050 8.231679e-03 1.406300e-14 1 
    0.419325 8.041450e-03 1.372000e-14 1 
    0.419600 7.688135e-03 1.310000e-14 1 
    0.419875 7.721722e-03 1.314000e-14 1 
    0.420150 8.225524e-03 1.397900e-14 1 
    0.420425 8.190928e-03 1.390200e-14 1 
    0.420700 8.043537e-03 1.363400e-14 1 
    0.420975 7.989075e-03 1.352400e-14 1 
    0.421250 8.230795e-03 1.391500e-14 1 
    0.421525 8.296627e-03 1.400800e-14 1 
    0.421800 8.026349e-03 1.353400e-14 1 
    0.422075 8.547508e-03 1.439400e-14 1 
    0.422350 8.236377e-03 1.385200e-14 1 
    0.422625 8.431077e-03 1.416100e-14 1 
    0.422900 8.742511e-03 1.466500e-14 1 
    0.423175 8.716278e-03 1.460200e-14 1 
    0.423450 8.588346e-03 1.436900e-14 1 
    0.423725 8.390637e-03 1.402000e-14 1 
    0.424000 8.481832e-03 1.415400e-14 1 
    0.424275 8.359031e-03 1.393100e-14 1 
    0.424550 8.405918e-03 1.399100e-14 1 
    0.424825 8.150308e-03 1.354800e-14 1 
    0.425100 8.393980e-03 1.393500e-14 1 
    0.425375 8.145491e-03 1.350500e-14 1 
    0.425650 8.241784e-03 1.364700e-14 1 
    0.425925 8.363098e-03 1.383000e-14 1 
    0.426200 8.462301e-03 1.397600e-14 1 
    0.426475 8.632069e-03 1.423800e-14 1 
    0.426750 8.513902e-03 1.402500e-14 1 
    0.427025 8.067788e-03 1.327300e-14 1 
    0.427300 8.409878e-03 1.381800e-14 1 
    0.427575 8.548072e-03 1.402700e-14 1 
    0.427850 8.854401e-03 1.451100e-14 1 
    0.428125 8.881060e-03 1.453600e-14 1 
    0.428400 8.688759e-03 1.420300e-14 1 
    0.428675 8.519218e-03 1.390800e-14 1 
    0.428950 9.009160e-03 1.468900e-14 1 
    0.429225 8.544164e-03 1.391300e-14 1 
    0.429500 8.615990e-03 1.401200e-14 1 
    0.429775 8.960115e-03 1.455300e-14 1 
    0.430050 8.663347e-03 1.405300e-14 1 
    0.430325 8.760847e-03 1.419300e-14 1 
    0.430600 8.207146e-03 1.327900e-14 1 
    0.430875 7.811051e-03 1.262200e-14 1 
    0.431150 8.191567e-03 1.322000e-14 1 
    0.431425 8.151145e-03 1.313800e-14 1 
    0.431700 8.145388e-03 1.311200e-14 1 
    0.431975 7.746488e-03 1.245400e-14 1 
    0.432250 7.200816e-03 1.156200e-14 1 
    0.432525 7.209358e-03 1.156100e-14 1 
    0.432800 7.448302e-03 1.192900e-14 1 
    0.433075 7.605313e-03 1.216500e-14 1 
    0.433350 7.935474e-03 1.267700e-14 1 
    0.433625 8.329131e-03 1.328900e-14 1 
    0.433900 8.869362e-03 1.413300e-14 1 
    0.434175 9.071001e-03 1.443600e-14 1 
    0.434450 8.558409e-03 1.360300e-14 1 
    0.434725 8.451446e-03 1.341600e-14 1 
    0.435000 8.464035e-03 1.341900e-14 1 
    0.435275 8.430531e-03 1.334900e-14 1 
    0.435550 8.851579e-03 1.399800e-14 1 
    0.435825 9.563019e-03 1.510400e-14 1 
    0.436100 9.358916e-03 1.476300e-14 1 
    0.436375 9.289475e-03 1.463500e-14 1 
    0.436650 8.841690e-03 1.391200e-14 1 
    0.436925 8.340572e-03 1.310700e-14 1 
    0.437200 8.758848e-03 1.374700e-14 1 
    0.437475 8.960617e-03 1.404600e-14 1 
    0.437750 9.385796e-03 1.469400e-14 1 
    0.438025 9.570272e-03 1.496400e-14 1 
    0.438300 9.276841e-03 1.448700e-14 1 
    0.438575 9.925158e-03 1.548000e-14 1 
    0.438850 9.347644e-03 1.456100e-14 1 
    0.439125 9.403714e-03 1.463000e-14 1 
    0.439400 9.526190e-03 1.480200e-14 1 
    0.439675 9.566471e-03 1.484600e-14 1 
    0.439950 9.261009e-03 1.435400e-14 1 
    0.440225 9.032927e-03 1.398300e-14 1 
    0.440500 8.741514e-03 1.351500e-14 1 
    0.440775 9.059398e-03 1.398900e-14 1 
    0.441050 8.890445e-03 1.371100e-14 1 
    0.441325 9.489735e-03 1.461700e-14 1 
    0.441600 9.428761e-03 1.450500e-14 1 
    0.441875 8.952374e-03 1.375500e-14 1 
    0.442150 9.694678e-03 1.487700e-14 1 
    0.442425 9.520135e-03 1.459100e-14 1 
    0.442700 8.567736e-03 1.311500e-14 1 
    0.442975 9.663518e-03 1.477400e-14 1 
    0.443250 9.699752e-03 1.481100e-14 1 
    0.443525 9.987191e-03 1.523100e-14 1 
    0.443800 9.798682e-03 1.492500e-14 1 
    0.444075 1.003827e-02 1.527100e-14 1 
    0.444350 9.888141e-03 1.502400e-14 1 
    0.444625 1.008490e-02 1.530400e-14 1 
    0.444900 9.858533e-03 1.494200e-14 1 
    0.445175 9.301946e-03 1.408100e-14 1 
    0.445450 9.577347e-03 1.448000e-14 1 
    0.445725 1.010969e-02 1.526600e-14 1 
    0.446000 1.007708e-02 1.519800e-14 1 
    0.446275 9.849194e-03 1.483600e-14 1 
    0.446550 1.010860e-02 1.520800e-14 1 
    0.446825 1.038327e-02 1.560200e-14 1 
    0.447100 1.012952e-02 1.520200e-14 1 
    0.447375 1.023071e-02 1.533500e-14 1 
    0.447650 1.030208e-02 1.542300e-14 1 
    0.447925 9.803783e-03 1.465900e-14 1 
    0.448200 9.967157e-03 1.488500e-14 1 
    0.448475 1.021739e-02 1.524000e-14 1 
    0.448750 1.054743e-02 1.571300e-14 1 
    0.449025 1.040108e-02 1.547600e-14 1 
    0.449300 1.072874e-02 1.594400e-14 1 
    0.449575 1.026623e-02 1.523800e-14 1 
    0.449850 1.092097e-02 1.619000e-14 1 
    0.450125 1.068848e-02 1.582600e-14 1 
    0.450400 1.038238e-02 1.535400e-14 1 
    0.450675 1.083919e-02 1.601000e-14 1 
    0.450950 1.068093e-02 1.575700e-14 1 
    0.451225 1.041299e-02 1.534300e-14 1 
    0.451500 1.045762e-02 1.539000e-14 1 
    0.451775 1.081053e-02 1.589000e-14 1 
    0.452050 1.118471e-02 1.642000e-14 1 
    0.452325 1.099032e-02 1.611500e-14 1 
    0.452600 1.110474e-02 1.626300e-14 1 
    0.452875 1.116268e-02 1.632800e-14 1 
    0.453150 1.132203e-02 1.654100e-14 1 
    0.453425 1.157290e-02 1.688700e-14 1 
    0.453700 1.119309e-02 1.631300e-14 1 
    0.453975 1.132139e-02 1.648000e-14 1 
    0.454250 1.106068e-02 1.608100e-14 1 
    0.454525 1.133438e-02 1.645900e-14 1 
    0.454800 1.020632e-02 1.480300e-14 1 
    0.455075 1.010132e-02 1.463300e-14 1 
    0.455350 1.046187e-02 1.513700e-14 1 
    0.455625 1.045998e-02 1.511600e-14 1 
    0.455900 1.075666e-02 1.552600e-14 1 
    0.456175 1.095970e-02 1.580000e-14 1 
    0.456450 1.130419e-02 1.627700e-14 1 
    0.456725 1.133450e-02 1.630100e-14 1 
    0.457000 1.027119e-02 1.475400e-14 1 
    0.457275 1.125727e-02 1.615100e-14 1 
    0.457550 1.070626e-02 1.534200e-14 1 
    0.457825 1.109572e-02 1.588100e-14 1 
    0.458100 1.170365e-02 1.673100e-14 1 
    0.458375 1.129259e-02 1.612400e-14 1 
    0.458650 1.122620e-02 1.601000e-14 1 
    0.458925 1.090620e-02 1.553500e-14 1 
    0.459200 1.119621e-02 1.592900e-14 1 
    0.459475 1.125537e-02 1.599400e-14 1 
    0.459750 1.168736e-02 1.658800e-14 1 
    0.460025 1.133100e-02 1.606300e-14 1 
    0.460300 1.123367e-02 1.590600e-14 1 
    0.460575 1.099820e-02 1.555400e-14 1 
    0.460850 1.101771e-02 1.556300e-14 1 
    0.461125 1.075585e-02 1.517500e-14 1 
    0.461400 1.139458e-02 1.605700e-14 1 
    0.461675 1.085044e-02 1.527200e-14 1 
    0.461950 1.129372e-02 1.587700e-14 1 
    0.462225 1.159489e-02 1.628100e-14 1 
    0.462500 1.147322e-02 1.609100e-14 1 
    0.462775 1.173172e-02 1.643400e-14 1 
    0.463050 1.139760e-02 1.594700e-14 1 
    0.463325 1.174746e-02 1.641700e-14 1 
    0.463600 1.190828e-02 1.662200e-14 1 
    0.463875 1.191308e-02 1.660900e-14 1 
    0.464150 1.178574e-02 1.641200e-14 1 
    0.464425 1.156533e-02 1.608600e-14 1 
    0.464700 1.149913e-02 1.597500e-14 1 
    0.464975 1.223486e-02 1.697700e-14 1 
    0.465250 1.192320e-02 1.652500e-14 1 
    0.465525 1.196981e-02 1.657000e-14 1 
    0.465800 1.216043e-02 1.681400e-14 1 
    0.466075 1.138553e-02 1.572400e-14 1 
    0.466350 1.114017e-02 1.536700e-14 1 
    0.466625 1.183919e-02 1.631200e-14 1 
    0.466900 1.118826e-02 1.539700e-14 1 
    0.467175 1.161685e-02 1.596800e-14 1 
    0.467450 1.197651e-02 1.644300e-14 1 
    0.467725 1.191257e-02 1.633600e-14 1 
    0.468000 1.185723e-02 1.624100e-14 1 
    0.468275 1.176080e-02 1.609000e-14 1 
    0.468550 1.170948e-02 1.600100e-14 1 
    0.468825 1.180895e-02 1.611800e-14 1 
    0.469100 1.130348e-02 1.541000e-14 1 
    0.469375 1.140854e-02 1.553500e-14 1 
    0.469650 1.228802e-02 1.671300e-14 1 
    0.469925 1.174592e-02 1.595700e-14 1 
    0.470200 1.215100e-02 1.648800e-14 1 
    0.470475 1.131746e-02 1.533900e-14 1 
    0.470750 1.179459e-02 1.596700e-14 1 
    0.471025 1.171149e-02 1.583600e-14 1 
    0.471300 1.144900e-02 1.546300e-14 1 
    0.471575 1.169586e-02 1.577800e-14 1 
    0.471850 1.168353e-02 1.574300e-14 1 
    0.472125 1.192229e-02 1.604600e-14 1 
    0.472400 1.187072e-02 1.595800e-14 1 
    0.472675 1.182199e-02 1.587400e-14 1 
    0.472950 1.180592e-02 1.583400e-14 1 
    0.473225 1.180622e-02 1.581600e-14 1 
    0.473500 1.210468e-02 1.619700e-14 1 
    0.473775 1.144461e-02 1.529600e-14 1 
    0.474050 1.245567e-02 1.662800e-14 1 
    0.474325 1.258487e-02 1.678100e-14 1 
    0.474600 1.184414e-02 1.577500e-14 1 
    0.474875 1.146775e-02 1.525600e-14 1 
    0.475150 1.146222e-02 1.523100e-14 1 
    0.475425 1.228091e-02 1.630000e-14 1 
    0.475700 1.222723e-02 1.621000e-14 1 
    0.475975 1.184717e-02 1.568800e-14 1 
    0.476250 1.178450e-02 1.558700e-14 1 
    0.476525 1.231206e-02 1.626600e-14 1 
    0.476800 1.235962e-02 1.631000e-14 1 
    0.477075 1.211214e-02 1.596500e-14 1 
    0.477350 1.282793e-02 1.688900e-14 1 
    0.477625 1.199713e-02 1.577700e-14 1 
    0.477900 1.249208e-02 1.640900e-14 1 
    0.478175 1.280905e-02 1.680600e-14 1 
    0.478450 1.176620e-02 1.542000e-14 1 
    0.478725 1.173237e-02 1.535800e-14 1 
    0.479000 1.214125e-02 1.587500e-14 1 
    0.479275 1.216515e-02 1.588800e-14 1 
    0.479550 1.274254e-02 1.662300e-14 1 
    0.479825 1.283313e-02 1.672200e-14 1 
    0.480100 1.308756e-02 1.703400e-14 1 
    0.480375 1.265027e-02 1.644600e-14 1 
    0.480650 1.228819e-02 1.595700e-14 1 
    0.480925 1.223055e-02 1.586400e-14 1 
    0.481200 1.200450e-02 1.555300e-14 1 
    0.481475 1.246873e-02 1.613600e-14 1 
    0.481750 1.282568e-02 1.657900e-14 1 
    0.482025 1.232452e-02 1.591300e-14 1 
    0.482300 1.243240e-02 1.603400e-14 1 
    0.482575 1.259796e-02 1.622900e-14 1 
    0.482850 1.299079e-02 1.671600e-14 1 
    0.483125 1.279475e-02 1.644500e-14 1 
    0.483400 1.277271e-02 1.639800e-14 1 
    0.483675 1.305939e-02 1.674700e-14 1 
    0.483950 1.312734e-02 1.681500e-14 1 
    0.484225 1.306097e-02 1.671100e-14 1 
    0.484500 1.315406e-02 1.681100e-14 1 
    0.484775 1.288151e-02 1.644400e-14 1 
    0.485050 1.337059e-02 1.704900e-14 1 
    0.485325 1.309997e-02 1.668500e-14 1 
    0.485600 1.326416e-02 1.687500e-14 1 
    0.485875 1.249228e-02 1.587500e-14 1 
    0.486150 1.276009e-02 1.619700e-14 1 
    0.486425 1.309869e-02 1.660800e-14 1 
    0.486700 1.271160e-02 1.609900e-14 1 
    0.486975 1.273625e-02 1.611200e-14 1 
    0.487250 1.242776e-02 1.570400e-14 1 
    0.487525 1.237286e-02 1.561700e-14 1 
    0.487800 1.330769e-02 1.677800e-14 1 
    0.488075 1.493225e-02 1.880500e-14 1 
    0.488350 1.780535e-02 2.239800e-14 1 
    0.488625 1.729935e-02 2.173700e-14 1 
    0.488900 1.475729e-02 1.852200e-14 1 
    0.489175 1.228606e-02 1.540300e-14 1 
    0.489450 1.235178e-02 1.546800e-14 1 
    0.489725 1.134479e-02 1.419100e-14 1 
    0.490000 1.181452e-02 1.476200e-14 1 
    0.490275 1.217151e-02 1.519100e-14 1 
    0.490550 1.197902e-02 1.493400e-14 1 
    0.490825 1.191858e-02 1.484200e-14 1 
    0.491100 1.216428e-02 1.513100e-14 1 
    0.491375 1.245476e-02 1.547500e-14 1 
    0.491650 1.301741e-02 1.615600e-14 1 
    0.491925 1.341190e-02 1.662700e-14 1 
    0.492200 1.334534e-02 1.652600e-14 1 
    0.492475 1.335783e-02 1.652300e-14 1 
    0.492750 1.352653e-02 1.671300e-14 1 
    0.493025 1.264550e-02 1.560700e-14 1 
    0.493300 1.259715e-02 1.553000e-14 1 
    0.493575 1.265505e-02 1.558400e-14 1 
    0.493850 1.317970e-02 1.621200e-14 1 
    0.494125 1.294452e-02 1.590500e-14 1 
    0.494400 1.256051e-02 1.541600e-14 1 
    0.494675 1.215931e-02 1.490700e-14 1 
    0.494950 1.280405e-02 1.568000e-14 1 
    0.495225 1.263435e-02 1.545500e-14 1 
    0.495500 1.318198e-02 1.610700e-14 1 
    0.495775 1.322365e-02 1.614000e-14 1 
    0.496050 1.296602e-02 1.580800e-14 1 
    0.496325 1.295987e-02 1.578300e-14 1 
    0.496600 1.303260e-02 1.585400e-14 1 
    0.496875 1.329228e-02 1.615200e-14 1 
    0.497150 1.347836e-02 1.636000e-14 1 
    0.497425 1.444093e-02 1.750900e-14 1 
    0.497700 1.454856e-02 1.762000e-14 1 
    0.497975 1.415217e-02 1.712100e-14 1 
    0.498250 1.453439e-02 1.756400e-14 1 
    0.498525 1.414120e-02 1.707000e-14 1 
    0.498800 1.376701e-02 1.660000e-14 1 
    0.499075 1.343598e-02 1.618300e-14 1 
    0.499350 1.372591e-02 1.651400e-14 1 
    0.499625 1.397485e-02 1.679500e-14 1 
    0.499900 1.344879e-02 1.614500e-14 1 
    0.500175 1.308582e-02 1.569200e-14 1 
    0.500450 1.305180e-02 1.563400e-14 1 
    0.500725 1.333943e-02 1.596100e-14 1 
    0.501000 1.282364e-02 1.532700e-14 1 
    0.501275 1.289300e-02 1.539300e-14 1 
    0.501550 1.328784e-02 1.584700e-14 1 
    0.501825 1.309172e-02 1.559600e-14 1 
    0.502100 1.335229e-02 1.588900e-14 1 
    0.502375 1.382457e-02 1.643300e-14 1 
    0.502650 1.530512e-02 1.817300e-14 1 
    0.502925 1.665736e-02 1.975700e-14 1 
    0.503200 1.664013e-02 1.971500e-14 1 
    0.503475 1.493546e-02 1.767600e-14 1 
    0.503750 1.339198e-02 1.583200e-14 1 
    0.504025 1.289090e-02 1.522300e-14 1 
    0.504300 1.274051e-02 1.502900e-14 1 
    0.504575 1.310914e-02 1.544700e-14 1 
    0.504850 1.319395e-02 1.553000e-14 1 
    0.505125 1.342521e-02 1.578500e-14 1 
    0.505400 1.335043e-02 1.568000e-14 1 
    0.505675 1.313568e-02 1.541100e-14 1 
    0.505950 1.331977e-02 1.561000e-14 1 
    0.506225 1.278500e-02 1.496700e-14 1 
    0.506500 1.326238e-02 1.550900e-14 1 
    0.506775 1.392654e-02 1.626800e-14 1 
    0.507050 1.321321e-02 1.541800e-14 1 
    0.507325 1.339913e-02 1.561800e-14 1 
    0.507600 1.396076e-02 1.625500e-14 1 
    0.507875 1.379705e-02 1.604700e-14 1 
    0.508150 1.387139e-02 1.611600e-14 1 
    0.508425 1.409148e-02 1.635400e-14 1 
    0.508700 1.431375e-02 1.659400e-14 1 
    0.508975 1.378866e-02 1.596800e-14 1 
    0.509250 1.345952e-02 1.557000e-14 1 
    0.509525 1.319540e-02 1.524800e-14 1 
    0.509800 1.371904e-02 1.583600e-14 1 
    0.510075 1.353438e-02 1.560600e-14 1 
    0.510350 1.363406e-02 1.570400e-14 1 
    0.510625 1.346190e-02 1.548900e-14 1 
    0.510900 1.362518e-02 1.566000e-14 1 
    0.511175 1.376528e-02 1.580400e-14 1 
    0.511450 1.393355e-02 1.598000e-14 1 
    0.511725 1.403321e-02 1.607700e-14 1 
    0.512000 1.378877e-02 1.578000e-14 1 
    0.512275 1.401266e-02 1.601900e-14 1 
    0.512550 1.348478e-02 1.539900e-14 1 
    0.512825 1.375172e-02 1.568700e-14 1 
    0.513100 1.383229e-02 1.576200e-14 1 
    0.513375 1.411946e-02 1.607200e-14 1 
    0.513650 1.353129e-02 1.538600e-14 1 
    0.513925 1.440328e-02 1.636000e-14 1 
    0.514200 1.437552e-02 1.631100e-14 1 
    0.514475 1.367272e-02 1.549700e-14 1 
    0.514750 1.397969e-02 1.582800e-14 1 
    0.515025 1.358791e-02 1.536800e-14 1 
    0.515300 1.358207e-02 1.534500e-14 1 
    0.515575 1.384112e-02 1.562100e-14 1 
    0.515850 1.395524e-02 1.573300e-14 1 
    0.516125 1.363003e-02 1.535000e-14 1 
    0.516400 1.357967e-02 1.527700e-14 1 
    0.516675 1.368846e-02 1.538300e-14 1 
    0.516950 1.370215e-02 1.538200e-14 1 
    0.517225 1.386030e-02 1.554300e-14 1 
    0.517500 1.350279e-02 1.512600e-14 1 
    0.517775 1.355110e-02 1.516400e-14 1 
    0.518050 1.381778e-02 1.544600e-14 1 
    0.518325 1.394887e-02 1.557600e-14 1 
    0.518600 1.425862e-02 1.590500e-14 1 
    0.518875 1.328297e-02 1.480100e-14 1 
    0.519150 1.247503e-02 1.388600e-14 1 
    0.519425 1.180745e-02 1.312900e-14 1 
    0.519700 1.249337e-02 1.387700e-14 1 
    0.519975 1.272380e-02 1.411800e-14 1 
    0.520250 1.353932e-02 1.500700e-14 1 
    0.520525 1.302258e-02 1.441900e-14 1 
    0.520800 1.257434e-02 1.390800e-14 1 
    0.521075 1.366465e-02 1.509800e-14 1 
    0.521350 1.365190e-02 1.506800e-14 1 
    0.521625 1.366631e-02 1.506800e-14 1 
    0.521900 1.370342e-02 1.509300e-14 1 
    0.522175 1.431955e-02 1.575500e-14 1 
    0.522450 1.468401e-02 1.613900e-14 1 
    0.522725 1.384423e-02 1.520000e-14 1 
    0.523000 1.340839e-02 1.470600e-14 1 
    0.523275 1.337230e-02 1.465100e-14 1 
    0.523550 1.423243e-02 1.557700e-14 1 
    0.523825 1.428397e-02 1.561700e-14 1 
    0.524100 1.432827e-02 1.564900e-14 1 
    0.524375 1.477684e-02 1.612200e-14 1 
    0.524650 1.429138e-02 1.557600e-14 1 
    0.524925 1.406388e-02 1.531200e-14 1 
    0.525200 1.373383e-02 1.493700e-14 1 
    0.525475 1.396543e-02 1.517300e-14 1 
    0.525750 1.411273e-02 1.531700e-14 1 
    0.526025 1.501295e-02 1.627700e-14 1 
    0.526300 1.445620e-02 1.565700e-14 1 
    0.526575 1.490017e-02 1.612100e-14 1 
    0.526850 1.492221e-02 1.612800e-14 1 
    0.527125 1.477478e-02 1.595200e-14 1 
    0.527400 1.397707e-02 1.507500e-14 1 
    0.527675 1.436384e-02 1.547600e-14 1 
    0.527950 1.429705e-02 1.538800e-14 1 
    0.528225 1.465050e-02 1.575200e-14 1 
    0.528500 1.489665e-02 1.600000e-14 1 
    0.528775 1.409385e-02 1.512200e-14 1 
    0.529050 1.366629e-02 1.464800e-14 1 
    0.529325 1.320792e-02 1.414200e-14 1 
    0.529600 1.378914e-02 1.474900e-14 1 
    0.529875 1.436500e-02 1.534900e-14 1 
    0.530150 1.469189e-02 1.568200e-14 1 
    0.530425 1.493597e-02 1.592600e-14 1 
    0.530700 1.488762e-02 1.585800e-14 1 
    0.530975 1.528461e-02 1.626400e-14 1 
    0.531250 1.567392e-02 1.666100e-14 1 
    0.531525 1.592182e-02 1.690700e-14 1 
    0.531800 1.522184e-02 1.614700e-14 1 
    0.532075 1.504319e-02 1.594100e-14 1 
    0.532350 1.539788e-02 1.630000e-14 1 
    0.532625 1.570788e-02 1.661100e-14 1 
    0.532900 1.581877e-02 1.671100e-14 1 
    0.533175 1.619992e-02 1.709600e-14 1 
    0.533450 1.600036e-02 1.686800e-14 1 
    0.533725 1.633021e-02 1.719800e-14 1 
    0.534000 1.582236e-02 1.664600e-14 1 
    0.534275 1.569117e-02 1.649100e-14 1 
    0.534550 1.550541e-02 1.627900e-14 1 
    0.534825 1.495120e-02 1.568100e-14 1 
    0.535100 1.525100e-02 1.597900e-14 1 
    0.535375 1.467145e-02 1.535600e-14 1 
    0.535650 1.521924e-02 1.591300e-14 1 
    0.535925 1.532966e-02 1.601200e-14 1 
    0.536200 1.559744e-02 1.627500e-14 1 
    0.536475 1.565374e-02 1.631700e-14 1 
    0.536750 1.558528e-02 1.622900e-14 1 
    0.537025 1.575026e-02 1.638400e-14 1 
    0.537300 1.547289e-02 1.607900e-14 1 
    0.537575 1.629212e-02 1.691300e-14 1 
    0.537850 1.636857e-02 1.697500e-14 1 
    0.538125 1.622605e-02 1.681000e-14 1 
    0.538400 1.635569e-02 1.692700e-14 1 
    0.538675 1.693050e-02 1.750400e-14 1 
    0.538950 1.610059e-02 1.662900e-14 1 
    0.539225 1.536782e-02 1.585600e-14 1 
    0.539500 1.544948e-02 1.592400e-14 1 
    0.539775 1.545261e-02 1.591100e-14 1 
    0.540050 1.592139e-02 1.637700e-14 1 
    0.540325 1.607775e-02 1.652100e-14 1 
    0.540600 1.677116e-02 1.721600e-14 1 
    0.540875 1.648398e-02 1.690400e-14 1 
    0.541150 1.634651e-02 1.674600e-14 1 
    0.541425 1.635336e-02 1.673600e-14 1 
    0.541700 1.571365e-02 1.606500e-14 1 
    0.541975 1.533600e-02 1.566300e-14 1 
    0.542250 1.519475e-02 1.550300e-14 1 
    0.542525 1.600094e-02 1.630900e-14 1 
    0.542800 1.543576e-02 1.571700e-14 1 
    0.543075 1.559101e-02 1.585900e-14 1 
    0.543350 1.579870e-02 1.605400e-14 1 
    0.543625 1.554872e-02 1.578400e-14 1 
    0.543900 1.632375e-02 1.655400e-14 1 
    0.544175 1.646562e-02 1.668100e-14 1 
    0.544450 1.629255e-02 1.648900e-14 1 
    0.544725 1.617351e-02 1.635200e-14 1 
    0.545000 1.592846e-02 1.608800e-14 1 
    0.545275 1.657586e-02 1.672500e-14 1 
    0.545550 1.510247e-02 1.522300e-14 1 
    0.545825 1.563212e-02 1.574100e-14 1 
    0.546100 1.572144e-02 1.581500e-14 1 
    0.546375 1.628059e-02 1.636100e-14 1 
    0.546650 1.633384e-02 1.639800e-14 1 
    0.546925 1.593449e-02 1.598100e-14 1 
    0.547200 1.584472e-02 1.587500e-14 1 
    0.547475 1.601951e-02 1.603400e-14 1 
    0.547750 1.554256e-02 1.554100e-14 1 
    0.548025 1.574838e-02 1.573100e-14 1 
    0.548300 1.640955e-02 1.637500e-14 1 
    0.548575 1.710211e-02 1.704900e-14 1 
    0.548850 1.651679e-02 1.644900e-14 1 
    0.549125 1.677759e-02 1.669200e-14 1 
    0.549400 1.590799e-02 1.581100e-14 1 
    0.549675 1.648289e-02 1.636600e-14 1 
    0.549950 1.660221e-02 1.646800e-14 1 
    0.550225 1.629185e-02 1.614400e-14 1 
    0.550500 1.717184e-02 1.699900e-14 1 
    0.550775 1.593817e-02 1.576200e-14 1 
    0.551050 1.695008e-02 1.674600e-14 1 
    0.551325 1.680591e-02 1.658700e-14 1 
    0.551600 1.682369e-02 1.658800e-14 1 
    0.551875 1.674809e-02 1.649700e-14 1 
    0.552150 1.708184e-02 1.680900e-14 1 
    0.552425 1.673978e-02 1.645600e-14 1 
    0.552700 1.734195e-02 1.703100e-14 1 
    0.552975 1.648467e-02 1.617300e-14 1 
    0.553250 1.656637e-02 1.623700e-14 1 
    0.553525 1.735597e-02 1.699400e-14 1 
    0.553800 1.713195e-02 1.675800e-14 1 
    0.554075 1.698831e-02 1.660100e-14 1 
    0.554350 1.696215e-02 1.655900e-14 1 
    0.554625 1.819609e-02 1.774600e-14 1 
    0.554900 1.679568e-02 1.636400e-14 1 
    0.555175 1.671165e-02 1.626600e-14 1 
    0.555450 1.690510e-02 1.643800e-14 1 
    0.555725 1.616829e-02 1.570600e-14 1 
    0.556000 1.598233e-02 1.551000e-14 1 
    0.556275 1.652935e-02 1.602500e-14 1 
    0.556550 1.696386e-02 1.643000e-14 1 
    0.556825 1.660960e-02 1.607100e-14 1 
    0.557100 1.707189e-02 1.650200e-14 1 
    0.557375 1.647052e-02 1.590500e-14 1 
    0.557650 1.722172e-02 1.661400e-14 1 
    0.557925 1.696166e-02 1.634700e-14 1 
    0.558200 1.690257e-02 1.627400e-14 1 
    0.558475 1.718954e-02 1.653400e-14 1 
    0.558750 1.662265e-02 1.597300e-14 1 
    0.559025 1.740883e-02 1.671200e-14 1 
    0.559300 1.667833e-02 1.599500e-14 1 
    0.559575 1.761950e-02 1.688100e-14 1 
    0.559850 1.709563e-02 1.636300e-14 1 
    0.560125 1.794907e-02 1.716300e-14 1 
    0.560400 1.736058e-02 1.658400e-14 1 
    0.560675 1.797700e-02 1.715600e-14 1 
    0.560950 1.732755e-02 1.652000e-14 1 
    0.561225 1.670199e-02 1.590800e-14 1 
    0.561500 1.696744e-02 1.614500e-14 1 
    0.561775 1.608989e-02 1.529500e-14 1 
    0.562050 1.763776e-02 1.675000e-14 1 
    0.562325 1.718493e-02 1.630400e-14 1 
    0.562600 1.696119e-02 1.607600e-14 1 
    0.562875 1.655111e-02 1.567200e-14 1 
    0.563150 1.707999e-02 1.615700e-14 1 
    0.563425 1.683002e-02 1.590500e-14 1 
    0.563700 1.734745e-02 1.637800e-14 1 
    0.563975 1.716824e-02 1.619300e-14 1 
    0.564250 1.745030e-02 1.644300e-14 1 
    0.564525 1.755761e-02 1.652800e-14 1 
    0.564800 1.750029e-02 1.645800e-14 1 
    0.565075 1.666478e-02 1.565700e-14 1 
    0.565350 1.722649e-02 1.616900e-14 1 
    0.565625 1.722085e-02 1.614800e-14 1 
    0.565900 1.780977e-02 1.668400e-14 1 
    0.566175 1.760590e-02 1.647700e-14 1 
    0.566450 1.730107e-02 1.617600e-14 1 
    0.566725 1.680292e-02 1.569500e-14 1 
    0.567000 1.755116e-02 1.637800e-14 1 
    0.567275 1.834051e-02 1.709800e-14 1 
    0.567550 1.714500e-02 1.596800e-14 1 
    0.567825 1.745718e-02 1.624300e-14 1 
    0.568100 1.777531e-02 1.652300e-14 1 
    0.568375 1.781622e-02 1.654500e-14 1 
    0.568650 1.764806e-02 1.637300e-14 1 
    0.568925 1.831573e-02 1.697600e-14 1 
    0.569200 1.757746e-02 1.627600e-14 1 
    0.569475 1.701828e-02 1.574300e-14 1 
    0.569750 1.800099e-02 1.663600e-14 1 
    0.570025 1.798587e-02 1.660600e-14 1 
    0.570300 1.793602e-02 1.654400e-14 1 
    0.570575 1.784589e-02 1.644500e-14 1 
    0.570850 1.808686e-02 1.665100e-14 1 
    0.571125 1.805319e-02 1.660400e-14 1 
    0.571400 1.788229e-02 1.643100e-14 1 
    0.571675 1.814244e-02 1.665400e-14 1 
    0.571950 1.836272e-02 1.684000e-14 1 
    0.572225 1.769057e-02 1.620800e-14 1 
    0.572500 1.854008e-02 1.697000e-14 1 
    0.572775 1.847369e-02 1.689300e-14 1 
    0.573050 1.808533e-02 1.652200e-14 1 
    0.573325 1.801285e-02 1.644000e-14 1 
    0.573600 1.786562e-02 1.629000e-14 1 
    0.573875 1.797058e-02 1.637000e-14 1 
    0.574150 1.814384e-02 1.651200e-14 1 
    0.574425 1.814253e-02 1.649500e-14 1 
    0.574700 1.878633e-02 1.706400e-14 1 
    0.574975 1.871726e-02 1.698500e-14 1 
    0.575250 1.857853e-02 1.684300e-14 1 
    0.575525 1.795924e-02 1.626600e-14 1 
    0.575800 1.915229e-02 1.733000e-14 1 
    0.576075 1.881992e-02 1.701300e-14 1 
    0.576350 1.856882e-02 1.677000e-14 1 
    0.576625 1.857325e-02 1.675800e-14 1 
    0.576900 1.864866e-02 1.681000e-14 1 
    0.577175 1.892073e-02 1.703900e-14 1 
    0.577450 1.871091e-02 1.683400e-14 1 
    0.577725 1.831486e-02 1.646200e-14 1 
    0.578000 1.831560e-02 1.644700e-14 1 
    0.578275 1.879339e-02 1.686000e-14 1 
    0.578550 1.837390e-02 1.646800e-14 1 
    0.578825 1.783521e-02 1.597000e-14 1 
    0.579100 1.856312e-02 1.660600e-14 1 
    0.579375 1.839837e-02 1.644300e-14 1 
    0.579650 1.914943e-02 1.709800e-14 1 
    0.579925 1.841538e-02 1.642700e-14 1 
    0.580200 1.832176e-02 1.632800e-14 1 
    0.580475 1.870079e-02 1.665000e-14 1 
    0.580750 1.805185e-02 1.605700e-14 1 
    0.581025 1.807682e-02 1.606400e-14 1 
    0.581300 1.776504e-02 1.577200e-14 1 
    0.581575 1.841321e-02 1.633200e-14 1 
    0.581850 1.875789e-02 1.662200e-14 1 
    0.582125 1.852261e-02 1.639800e-14 1 
    0.582400 1.865883e-02 1.650300e-14 1 
    0.582675 1.882131e-02 1.663100e-14 1 
    0.582950 1.856042e-02 1.638500e-14 1 
    0.583225 1.946573e-02 1.716800e-14 1 
    0.583500 1.848083e-02 1.628400e-14 1 
    0.583775 1.790073e-02 1.575800e-14 1 
    0.584050 1.859187e-02 1.635100e-14 1 
    0.584325 1.923194e-02 1.689800e-14 1 
    0.584600 1.941522e-02 1.704300e-14 1 
    0.584875 1.870259e-02 1.640200e-14 1 
    0.585150 1.894502e-02 1.659900e-14 1 
    0.585425 1.940951e-02 1.699000e-14 1 
    0.585700 1.885258e-02 1.648700e-14 1 
    0.585975 1.958792e-02 1.711400e-14 1 
    0.586250 2.040253e-02 1.780900e-14 1 
    0.586525 1.984259e-02 1.730400e-14 1 
    0.586800 2.023652e-02 1.763100e-14 1 
    0.587075 1.949495e-02 1.696900e-14 1 
    0.587350 1.936373e-02 1.683900e-14 1 
    0.587625 1.995852e-02 1.734000e-14 1 
    0.587900 1.992651e-02 1.729600e-14 1 
    0.588175 1.911950e-02 1.658000e-14 1 
    0.588450 1.858796e-02 1.610400e-14 1 
    0.588725 1.859840e-02 1.609800e-14 1 
    0.589000 1.998728e-02 1.728400e-14 1 
    0.589275 1.818059e-02 1.570700e-14 1 
    0.589550 1.919161e-02 1.656500e-14 1 
    0.589825 1.903441e-02 1.641400e-14 1 
    0.590100 2.010611e-02 1.732200e-14 1 
    0.590375 1.880736e-02 1.618800e-14 1 
    0.590650 2.000173e-02 1.720000e-14 1 
    0.590925 1.918463e-02 1.648200e-14 1 
    0.591200 1.860947e-02 1.597300e-14 1 
    0.591475 1.799474e-02 1.543100e-14 1 
    0.591750 1.765547e-02 1.512600e-14 1 
    0.592025 1.671621e-02 1.430800e-14 1 
    0.592300 1.726499e-02 1.476400e-14 1 
    0.592575 1.824199e-02 1.558500e-14 1 
    0.592850 1.876504e-02 1.601700e-14 1 
    0.593125 1.973114e-02 1.682600e-14 1 
    0.593400 1.940905e-02 1.653600e-14 1 
    0.593675 1.873507e-02 1.594700e-14 1 
    0.593950 1.896292e-02 1.612600e-14 1 
    0.594225 1.946777e-02 1.654000e-14 1 
    0.594500 1.925488e-02 1.634400e-14 1 
    0.594775 1.910879e-02 1.620500e-14 1 
    0.595050 1.905801e-02 1.614700e-14 1 
    0.595325 1.920203e-02 1.625400e-14 1 
    0.595600 1.976963e-02 1.671900e-14 1 
    0.595875 1.940441e-02 1.639500e-14 1 
    0.596150 1.930031e-02 1.629200e-14 1 
    0.596425 1.907978e-02 1.609100e-14 1 
    0.596700 1.935849e-02 1.631100e-14 1 
    0.596975 1.978736e-02 1.665700e-14 1 
    0.597250 2.030617e-02 1.707800e-14 1 
    0.597525 2.056052e-02 1.727600e-14 1 
    0.597800 1.877714e-02 1.576300e-14 1 
    0.598075 1.852973e-02 1.554100e-14 1 
    0.598350 1.845965e-02 1.546800e-14 1 
    0.598625 1.951226e-02 1.633500e-14 1 
    0.598900 1.963780e-02 1.642500e-14 1 
    0.599175 1.882173e-02 1.572800e-14 1 
    0.599450 1.937323e-02 1.617400e-14 1 
    0.599725 1.955526e-02 1.631100e-14 1 
    0.600000 1.922640e-02 1.602200e-14 1 
    0.600275 1.970165e-02 1.640300e-14 1 
    0.600550 1.921839e-02 1.598600e-14 1 
    0.600825 1.982922e-02 1.647900e-14 1 
    0.601100 1.861647e-02 1.545700e-14 1 
    0.601375 1.881795e-02 1.561000e-14 1 
    0.601650 2.076454e-02 1.720900e-14 1 
    0.601925 1.941881e-02 1.607900e-14 1 
    0.602200 1.926127e-02 1.593400e-14 1 
    0.602475 1.966000e-02 1.624900e-14 1 
    0.602750 1.964041e-02 1.621800e-14 1 
    0.603025 1.980500e-02 1.633900e-14 1 
    0.603300 1.910847e-02 1.575000e-14 1 
    0.603575 1.882717e-02 1.550400e-14 1 
    0.603850 2.030044e-02 1.670200e-14 1 
    0.604125 1.955250e-02 1.607200e-14 1 
    0.604400 2.068568e-02 1.698800e-14 1 
    0.604675 2.014875e-02 1.653200e-14 1 
    0.604950 2.009145e-02 1.647000e-14 1 
    0.605225 1.965063e-02 1.609400e-14 1 
    0.605500 1.940818e-02 1.588100e-14 1 
    0.605775 1.904540e-02 1.557000e-14 1 
    0.606050 1.955855e-02 1.597500e-14 1 
    0.606325 1.997947e-02 1.630400e-14 1 
    0.606600 2.038395e-02 1.661900e-14 1 
    0.606875 2.021093e-02 1.646300e-14 1 
    0.607150 2.064211e-02 1.679900e-14 1 
    0.607425 2.039762e-02 1.658500e-14 1 
    0.607700 2.027330e-02 1.646900e-14 1 
    0.607975 2.048879e-02 1.662900e-14 1 
    0.608250 2.082304e-02 1.688500e-14 1 
    0.608525 2.006176e-02 1.625300e-14 1 
    0.608800 2.009596e-02 1.626600e-14 1 
    0.609075 2.051477e-02 1.659000e-14 1 
    0.609350 2.053083e-02 1.658800e-14 1 
    0.609625 2.012445e-02 1.624500e-14 1 
    0.609900 2.079605e-02 1.677200e-14 1 
    0.610175 1.987161e-02 1.601200e-14 1 
    0.610450 2.021994e-02 1.627800e-14 1 
    0.610725 2.053904e-02 1.652000e-14 1 
    0.611000 2.038333e-02 1.638000e-14 1 
    0.611275 1.978639e-02 1.588600e-14 1 
    0.611550 2.109198e-02 1.691900e-14 1 
    0.611825 2.084892e-02 1.670900e-14 1 
    0.612100 2.064287e-02 1.652900e-14 1 
    0.612375 2.036517e-02 1.629200e-14 1 
    0.612650 2.074379e-02 1.658000e-14 1 
    0.612925 2.096153e-02 1.673900e-14 1 
    0.613200 2.034237e-02 1.623000e-14 1 
    0.613475 2.077837e-02 1.656300e-14 1 
    0.613750 2.070032e-02 1.648600e-14 1 
    0.614025 2.106825e-02 1.676400e-14 1 
    0.614300 2.045441e-02 1.626100e-14 1 
    0.614575 2.064647e-02 1.639900e-14 1 
    0.614850 2.047467e-02 1.624800e-14 1 
    0.615125 2.040849e-02 1.618100e-14 1 
    0.615400 2.033080e-02 1.610500e-14 1 
    0.615675 2.112730e-02 1.672100e-14 1 
    0.615950 2.108295e-02 1.667100e-14 1 
    0.616225 2.100811e-02 1.659700e-14 1 
    0.616500 2.087230e-02 1.647500e-14 1 
    0.616775 1.993736e-02 1.572300e-14 1 
    0.617050 2.095525e-02 1.651100e-14 1 
    0.617325 2.123307e-02 1.671500e-14 1 
    0.617600 2.080064e-02 1.636000e-14 1 
    0.617875 2.092606e-02 1.644400e-14 1 
    0.618150 2.071670e-02 1.626500e-14 1 
    0.618425 2.051714e-02 1.609400e-14 1 
    0.618700 1.991272e-02 1.560600e-14 1 
    0.618975 1.955496e-02 1.531200e-14 1 
    0.619250 1.955700e-02 1.530000e-14 1 
    0.619525 1.907925e-02 1.491300e-14 1 
    0.619800 1.940864e-02 1.515700e-14 1 
    0.620075 2.035891e-02 1.588500e-14 1 
    0.620350 1.994980e-02 1.555200e-14 1 
    0.620625 1.994438e-02 1.553400e-14 1 
    0.620900 2.065856e-02 1.607600e-14 1 
    0.621175 2.067558e-02 1.607500e-14 1 
    0.621450 1.967432e-02 1.528300e-14 1 
    0.621725 1.967370e-02 1.526900e-14 1 
    0.622000 2.000448e-02 1.551200e-14 1 
    0.622275 2.027516e-02 1.570800e-14 1 
    0.622550 2.053984e-02 1.589900e-14 1 
    0.622825 2.070927e-02 1.601600e-14 1 
    0.623100 2.111970e-02 1.631900e-14 1 
    0.623375 2.143368e-02 1.654700e-14 1 
    0.623650 2.117904e-02 1.633600e-14 1 
    0.623925 2.055281e-02 1.583900e-14 1 
    0.624200 2.044236e-02 1.574000e-14 1 
    0.624475 1.918258e-02 1.475700e-14 1 
    0.624750 1.919687e-02 1.475500e-14 1 
    0.625025 2.004067e-02 1.539000e-14 1 
    0.625300 1.987454e-02 1.524900e-14 1 
    0.625575 2.064601e-02 1.582700e-14 1 
    0.625850 2.090571e-02 1.601200e-14 1 
    0.626125 1.966696e-02 1.505000e-14 1 
    0.626400 1.993406e-02 1.524100e-14 1 
    0.626675 2.039534e-02 1.558000e-14 1 
    0.626950 2.047351e-02 1.562600e-14 1 
    0.627225 1.952369e-02 1.488800e-14 1 
    0.627500 2.012226e-02 1.533100e-14 1 
    0.627775 2.047882e-02 1.558900e-14 1 
    0.628050 2.081627e-02 1.583200e-14 1 
    0.628325 1.988174e-02 1.510800e-14 1 
    0.628600 1.994130e-02 1.514000e-14 1 
    0.628875 1.909923e-02 1.448800e-14 1 
    0.629150 2.004350e-02 1.519100e-14 1 
    0.629425 2.013762e-02 1.524900e-14 1 
    0.629700 2.042221e-02 1.545100e-14 1 
    0.629975 2.026411e-02 1.531800e-14 1 
    0.630250 2.135958e-02 1.613200e-14 1 
    0.630525 2.146701e-02 1.619900e-14 1 
    0.630800 2.027344e-02 1.528500e-14 1 
    0.631075 2.041989e-02 1.538200e-14 1 
    0.631350 2.003245e-02 1.507700e-14 1 
    0.631625 2.083451e-02 1.566700e-14 1 
    0.631900 2.106428e-02 1.582600e-14 1 
    0.632175 2.093342e-02 1.571400e-14 1 
    0.632450 2.141162e-02 1.605900e-14 1 
    0.632725 2.346665e-02 1.758500e-14 1 
    0.633000 2.235711e-02 1.673900e-14 1 
    0.633275 2.231772e-02 1.669500e-14 1 
    0.633550 2.178721e-02 1.628400e-14 1 
    0.633825 2.164142e-02 1.616100e-14 1 
    0.634100 2.127956e-02 1.587700e-14 1 
    0.634375 2.154753e-02 1.606300e-14 1 
    0.634650 2.132858e-02 1.588600e-14 1 
    0.634925 2.057843e-02 1.531400e-14 1 
    0.635200 2.176366e-02 1.618200e-14 1 
    0.635475 2.108254e-02 1.566200e-14 1 
    0.635750 2.156425e-02 1.600600e-14 1 
    0.636025 2.224364e-02 1.649600e-14 1 
    0.636300 2.167310e-02 1.605900e-14 1 
    0.636575 2.178234e-02 1.612600e-14 1 
    0.636850 2.181874e-02 1.613900e-14 1 
    0.637125 2.157509e-02 1.594500e-14 1 
    0.637400 2.173727e-02 1.605100e-14 1 
    0.637675 2.133720e-02 1.574200e-14 1 
    0.637950 2.291434e-02 1.689100e-14 1 
    0.638225 2.097755e-02 1.545000e-14 1 
    0.638500 2.185313e-02 1.608100e-14 1 
    0.638775 2.117694e-02 1.557000e-14 1 
    0.639050 2.149874e-02 1.579300e-14 1 
    0.639325 2.198457e-02 1.613600e-14 1 
    0.639600 2.094668e-02 1.536100e-14 1 
    0.639875 2.121718e-02 1.554600e-14 1 
    0.640150 2.201266e-02 1.611500e-14 1 
    0.640425 2.221751e-02 1.625100e-14 1 
    0.640700 2.211482e-02 1.616200e-14 1 
    0.640975 2.235977e-02 1.632700e-14 1 
    0.641250 2.262705e-02 1.650800e-14 1 
    0.641525 2.170537e-02 1.582200e-14 1 
    0.641800 2.118027e-02 1.542600e-14 1 
    0.642075 2.246681e-02 1.634900e-14 1 
    0.642350 2.322877e-02 1.688900e-14 1 
    0.642625 2.234839e-02 1.623500e-14 1 
    0.642900 2.166901e-02 1.572800e-14 1 
    0.643175 2.194127e-02 1.591200e-14 1 
    0.643450 2.253692e-02 1.633000e-14 1 
    0.643725 2.235590e-02 1.618500e-14 1 
    0.644000 2.207363e-02 1.596700e-14 1 
    0.644275 2.208142e-02 1.595900e-14 1 
    0.644550 2.194517e-02 1.584700e-14 1 
    0.644825 2.204429e-02 1.590500e-14 1 
    0.645100 2.179121e-02 1.570900e-14 1 
    0.645375 2.139051e-02 1.540700e-14 1 
    0.645650 2.138234e-02 1.538800e-14 1 
    0.645925 2.259381e-02 1.624600e-14 1 
    0.646200 2.295824e-02 1.649400e-14 1 
    0.646475 2.209178e-02 1.585800e-14 1 
    0.646750 2.114434e-02 1.516500e-14 1 
    0.647025 2.170795e-02 1.555600e-14 1 
    0.647300 2.204065e-02 1.578100e-14 1 
    0.647575 2.121928e-02 1.518000e-14 1 
    0.647850 2.094910e-02 1.497400e-14 1 
    0.648125 2.081147e-02 1.486300e-14 1 
    0.648400 2.100151e-02 1.498600e-14 1 
    0.648675 2.196047e-02 1.565700e-14 1 
    0.648950 2.259957e-02 1.609900e-14 1 
    0.649225 2.250492e-02 1.601800e-14 1 
    0.649500 2.193621e-02 1.560000e-14 1 
    0.649775 2.190694e-02 1.556600e-14 1 
    0.650050 2.340869e-02 1.661900e-14 1 
    0.650325 2.212731e-02 1.569600e-14 1 
    0.650600 2.310264e-02 1.637400e-14 1 
    0.650875 2.422505e-02 1.715500e-14 1 
    0.651150 2.367737e-02 1.675300e-14 1 
    0.651425 2.318532e-02 1.639100e-14 1 
    0.651700 2.224788e-02 1.571500e-14 1 
    0.651975 2.293544e-02 1.618700e-14 1 
    0.652250 2.227977e-02 1.571100e-14 1 
    0.652525 2.153498e-02 1.517300e-14 1 
    0.652800 2.168240e-02 1.526400e-14 1 
    0.653075 2.257643e-02 1.588000e-14 1 
    0.653350 2.199926e-02 1.546100e-14 1 
    0.653625 2.256606e-02 1.584600e-14 1 
    0.653900 2.224869e-02 1.561000e-14 1 
    0.654175 2.256839e-02 1.582100e-14 1 
    0.654450 2.308706e-02 1.617100e-14 1 
    0.654725 2.384805e-02 1.669000e-14 1 
    0.655000 2.542545e-02 1.777900e-14 1 
    0.655275 2.334568e-02 1.631100e-14 1 
    0.655550 2.252155e-02 1.572200e-14 1 
    0.655825 2.355549e-02 1.643000e-14 1 
    0.656100 2.205140e-02 1.536800e-14 1 
    0.656375 2.224940e-02 1.549300e-14 1 
    0.656650 2.351131e-02 1.635800e-14 1 
    0.656925 2.178323e-02 1.514300e-14 1 
    0.657200 2.431664e-02 1.689000e-14 1 
    0.657475 2.812947e-02 1.952200e-14 1 
    0.657750 3.068248e-02 2.127600e-14 1 
    0.658025 2.979019e-02 2.064000e-14 1 
    0.658300 2.827378e-02 1.957300e-14 1 
    0.658575 2.899570e-02 2.005600e-14 1 
    0.658850 4.240994e-02 2.931000e-14 1 
    0.659125 6.781698e-02 4.683000e-14 1 
    0.659400 8.018301e-02 5.532300e-14 1 
    0.659675 6.606767e-02 4.554600e-14 1 
    0.659950 4.208129e-02 2.898600e-14 1 
    0.660225 3.165920e-02 2.178900e-14 1 
    0.660500 2.657552e-02 1.827500e-14 1 
    0.660775 2.730935e-02 1.876400e-14 1 
    0.661050 3.667487e-02 2.517800e-14 1 
    0.661325 4.570753e-02 3.135300e-14 1 
    0.661600 4.497517e-02 3.082500e-14 1 
    0.661875 3.600275e-02 2.465500e-14 1 
    0.662150 2.782649e-02 1.904000e-14 1 
    0.662425 2.442545e-02 1.669900e-14 1 
    0.662700 2.369915e-02 1.618900e-14 1 
    0.662975 2.460522e-02 1.679400e-14 1 
    0.663250 2.486318e-02 1.695600e-14 1 
    0.663525 2.476493e-02 1.687500e-14 1 
    0.663800 2.480456e-02 1.688800e-14 1 
    0.664075 2.406807e-02 1.637300e-14 1 
    0.664350 2.343185e-02 1.592700e-14 1 
    0.664625 2.339530e-02 1.588900e-14 1 
    0.664900 2.416770e-02 1.640000e-14 1 
    0.665175 2.391484e-02 1.621500e-14 1 
    0.665450 2.299141e-02 1.557600e-14 1 
    0.665725 2.356883e-02 1.595400e-14 1 
    0.666000 2.428173e-02 1.642300e-14 1 
    0.666275 2.366402e-02 1.599200e-14 1 
    0.666550 2.302305e-02 1.554600e-14 1 
    0.666825 2.327031e-02 1.570000e-14 1 
    0.667100 2.319902e-02 1.563900e-14 1 
    0.667375 2.335325e-02 1.573000e-14 1 
    0.667650 2.405599e-02 1.619000e-14 1 
    0.667925 2.383937e-02 1.603100e-14 1 
    0.668200 2.357920e-02 1.584300e-14 1 
    0.668475 2.447595e-02 1.643200e-14 1 
    0.668750 2.470778e-02 1.657400e-14 1 
    0.669025 2.368073e-02 1.587200e-14 1 
    0.669300 2.293867e-02 1.536200e-14 1 
    0.669575 2.374658e-02 1.589000e-14 1 
    0.669850 2.406223e-02 1.608800e-14 1 
    0.670125 2.329912e-02 1.556500e-14 1 
    0.670400 2.318491e-02 1.547600e-14 1 
    0.670675 2.520707e-02 1.681200e-14 1 
    0.670950 2.400927e-02 1.600000e-14 1 
    0.671225 2.343274e-02 1.560300e-14 1 
    0.671500 2.304011e-02 1.532900e-14 1 
    0.671775 2.335683e-02 1.552700e-14 1 
    0.672050 2.354909e-02 1.564200e-14 1 
    0.672325 2.361207e-02 1.567100e-14 1 
    0.672600 2.373544e-02 1.574000e-14 1 
    0.672875 2.391331e-02 1.584500e-14 1 
    0.673150 2.295410e-02 1.519700e-14 1 
    0.673425 2.294414e-02 1.517800e-14 1 
    0.673700 2.415203e-02 1.596400e-14 1 
    0.673975 2.453060e-02 1.620100e-14 1 
    0.674250 2.724193e-02 1.797700e-14 1 
    0.674525 3.191258e-02 2.104200e-14 1 
    0.674800 3.688528e-02 2.430100e-14 1 
    0.675075 3.477799e-02 2.289400e-14 1 
    0.675350 2.992609e-02 1.968400e-14 1 
    0.675625 2.778984e-02 1.826400e-14 1 
    0.675900 3.069057e-02 2.015400e-14 1 
    0.676175 3.146994e-02 2.064900e-14 1 
    0.676450 3.240462e-02 2.124500e-14 1 
    0.676725 2.837042e-02 1.858500e-14 1 
    0.677000 2.546934e-02 1.667100e-14 1 
    0.677275 2.397021e-02 1.567700e-14 1 
    0.677550 2.311897e-02 1.510800e-14 1 
    0.677825 2.261856e-02 1.476900e-14 1 
    0.678100 2.323315e-02 1.515800e-14 1 
    0.678375 2.299736e-02 1.499200e-14 1 
    0.678650 2.364084e-02 1.539900e-14 1 
    0.678925 2.457267e-02 1.599300e-14 1 
    0.679200 2.359922e-02 1.534700e-14 1 
    0.679475 2.427546e-02 1.577400e-14 1 
    0.679750 2.283347e-02 1.482500e-14 1 
    0.680025 2.258836e-02 1.465400e-14 1 
    0.680300 2.331164e-02 1.511100e-14 1 
    0.680575 2.305722e-02 1.493400e-14 1 
    0.680850 2.340034e-02 1.514400e-14 1 
    0.681125 2.323523e-02 1.502500e-14 1 
    0.681400 2.326637e-02 1.503300e-14 1 
    0.681675 2.393881e-02 1.545500e-14 1 
    0.681950 2.375195e-02 1.532200e-14 1 
    0.682225 2.406278e-02 1.551000e-14 1 
    0.682500 2.361327e-02 1.520800e-14 1 
    0.682775 2.251657e-02 1.449000e-14 1 
    0.683912 2.453274e-02 1.573500e-14 0 
    0.685488 2.481352e-02 1.584200e-14 0 
    0.687068 2.486825e-02 1.580400e-14 0 
    0.688652 2.475067e-02 1.565700e-14 0 
    0.690240 2.418365e-02 1.522800e-14 0 
    0.691831 2.463031e-02 1.543800e-14 0 
    0.693426 2.485460e-02 1.550700e-14 0 
    0.695024 2.502403e-02 1.554100e-14 0 
    0.696626 2.502144e-02 1.546800e-14 0 
    0.698233 2.577730e-02 1.586200e-14 0 
    0.699842 2.571502e-02 1.575100e-14 0 
    0.701455 2.489554e-02 1.517900e-14 0 
    0.703072 2.600566e-02 1.578300e-14 0 
    0.704693 2.576321e-02 1.556400e-14 0 
    0.706318 2.558283e-02 1.538400e-14 0 
    0.707946 2.703406e-02 1.618200e-14 0 
    0.709578 2.605114e-02 1.552200e-14 0 
    0.711214 2.635013e-02 1.562800e-14 0 
    0.712853 2.533513e-02 1.495700e-14 0 
    0.714496 2.580260e-02 1.516300e-14 0 
    0.716143 2.568065e-02 1.502200e-14 0 
    0.717794 2.567726e-02 1.495100e-14 0 
    0.719449 2.591140e-02 1.501800e-14 0 
    0.721108 2.584904e-02 1.491300e-14 0 
    0.722770 2.462403e-02 1.414100e-14 0 
    0.724436 2.519426e-02 1.440200e-14 0 
    0.726106 2.625781e-02 1.494100e-14 0 
    0.727780 2.661913e-02 1.507700e-14 0 
    0.729457 2.717296e-02 1.532000e-14 0 
    0.731139 2.698124e-02 1.514200e-14 0 
    0.732825 2.624299e-02 1.466000e-14 0 
    0.734514 2.741254e-02 1.524300e-14 0 
    0.736207 2.798350e-02 1.548900e-14 0 
    0.737904 2.869709e-02 1.581100e-14 0 
    0.739605 2.740183e-02 1.502800e-14 0 
    0.741310 2.868968e-02 1.566200e-14 0 
    0.743019 2.816146e-02 1.530300e-14 0 
    0.744732 2.841717e-02 1.537100e-14 0 
    0.746449 2.854465e-02 1.536900e-14 0 
    0.748170 2.860738e-02 1.533200e-14 0 
    0.749894 2.926985e-02 1.561500e-14 0 
    0.751623 2.919784e-02 1.550500e-14 0 
    0.753356 2.879346e-02 1.522000e-14 0 
    0.755092 2.885409e-02 1.518200e-14 0 
    0.756833 3.000306e-02 1.571400e-14 0 
    0.758578 3.020679e-02 1.574800e-14 0 
    0.760326 3.027101e-02 1.570900e-14 0 
    0.762079 3.047658e-02 1.574300e-14 0 
    0.763836 2.964292e-02 1.524200e-14 0 
    0.765597 3.018810e-02 1.545100e-14 0 
    0.767361 2.943037e-02 1.499400e-14 0 
    0.769130 3.004144e-02 1.523500e-14 0 
    0.770904 2.568336e-02 1.296500e-14 0 
    0.772681 2.928262e-02 1.471400e-14 0 
    0.774462 2.738648e-02 1.369800e-14 0 
    0.776247 2.954349e-02 1.470900e-14 0 
    0.778037 3.008951e-02 1.491200e-14 0 
    0.779830 2.967090e-02 1.463700e-14 0 
    0.781628 2.905845e-02 1.426900e-14 0 
    0.783430 3.007641e-02 1.470100e-14 0 
    0.785236 2.986378e-02 1.453000e-14 0 
    0.787046 3.069539e-02 1.486600e-14 0 
    0.788860 3.097602e-02 1.493300e-14 0 
    0.790679 3.097108e-02 1.486200e-14 0 
    0.792501 3.068271e-02 1.465600e-14 0 
    0.794328 3.074864e-02 1.462000e-14 0 
    0.796159 2.983622e-02 1.412100e-14 0 
    0.797995 3.017777e-02 1.421700e-14 0 
    0.799834 3.066460e-02 1.438000e-14 0 
    0.801678 3.137387e-02 1.464500e-14 0 
    0.803526 3.151222e-02 1.464200e-14 0 
    0.805378 3.158198e-02 1.460700e-14 0 
    0.807235 3.092845e-02 1.423900e-14 0 
    0.809096 3.121088e-02 1.430300e-14 0 
    0.810961 3.245103e-02 1.480300e-14 0 
    0.812831 3.170672e-02 1.439700e-14 0 
    0.814704 3.274021e-02 1.479800e-14 0 
    0.816582 3.288688e-02 1.479600e-14 0 
    0.818465 3.273058e-02 1.465800e-14 0 
    0.820352 3.265062e-02 1.455500e-14 0 
    0.822243 3.160916e-02 1.402600e-14 0 
    0.824138 2.997551e-02 1.324000e-14 0 
    0.826038 3.316621e-02 1.458200e-14 0 
    0.827942 3.255611e-02 1.424800e-14 0 
    0.829851 3.369348e-02 1.467800e-14 0 
    0.831764 3.338086e-02 1.447500e-14 0 
    0.833681 3.291633e-02 1.420800e-14 0 
    0.835603 3.283554e-02 1.410800e-14 0 
    0.837529 3.275560e-02 1.400900e-14 0 
    0.839460 3.335782e-02 1.420100e-14 0 
    0.841395 3.428816e-02 1.453000e-14 0 
    0.843335 3.184815e-02 1.343400e-14 0 
    0.845279 3.435538e-02 1.442500e-14 0 
    0.847227 3.303047e-02 1.380500e-14 0 
    0.849180 3.302668e-02 1.374000e-14 0 
    0.851138 3.309706e-02 1.370600e-14 0 
    0.853100 3.433422e-02 1.415300e-14 0 
    0.855067 3.331559e-02 1.367000e-14 0 
    0.857038 3.400800e-02 1.389000e-14 0 
    0.859014 2.267287e-02 9.217800e-15 0 
    0.860994 3.438941e-02 1.391700e-14 0 
    0.862979 3.375625e-02 1.359800e-14 0 
    0.864968 3.406416e-02 1.365900e-14 0 
    0.866962 3.390071e-02 1.353100e-14 0 
    0.868960 3.436673e-02 1.365400e-14 0 
    0.870964 2.213481e-02 8.753800e-15 0 
    0.872971 3.357463e-02 1.321700e-14 0 
    0.874984 3.395678e-02 1.330600e-14 0 
    0.877001 3.522619e-02 1.374000e-14 0 
    0.879023 3.410359e-02 1.324100e-14 0 
    0.881049 3.497253e-02 1.351600e-14 0 
    0.883080 3.545108e-02 1.363800e-14 0 
    0.885116 3.447877e-02 1.320300e-14 0 
    0.887156 3.400037e-02 1.296000e-14 0 
    0.889201 3.551464e-02 1.347500e-14 0 
    0.891251 3.291167e-02 1.243000e-14 0 
    0.893305 3.477657e-02 1.307400e-14 0 
    0.895365 3.549832e-02 1.328400e-14 0 
    0.897429 3.508499e-02 1.306900e-14 0 
    0.899498 3.435964e-02 1.274000e-14 0 
    0.901571 3.372703e-02 1.244800e-14 0 
    0.903650 3.168888e-02 1.164200e-14 0 
    0.905733 3.363718e-02 1.230100e-14 0 
    0.907820 3.587195e-02 1.305800e-14 0 
    0.909913 3.834198e-02 1.389300e-14 0 
    0.912011 3.448217e-02 1.243700e-14 0 
    0.914113 3.552425e-02 1.275400e-14 0 
    0.916220 3.770851e-02 1.347600e-14 0 
    0.918333 3.559438e-02 1.266200e-14 0 
    0.920450 3.253074e-02 1.151900e-14 0 
    0.922571 3.274892e-02 1.154300e-14 0 
    0.924698 3.573893e-02 1.253900e-14 0 
    0.926830 3.516230e-02 1.228000e-14 0 
    0.928966 3.589125e-02 1.247700e-14 0 
    0.931108 3.672163e-02 1.270700e-14 0 
    0.933254 3.679819e-02 1.267500e-14 0 
    0.935406 3.799765e-02 1.302800e-14 0 
    0.937562 3.816716e-02 1.302600e-14 0 
    0.939723 3.824617e-02 1.299300e-14 0 
    0.941890 3.797623e-02 1.284200e-14 0 
    0.944061 3.840996e-02 1.292900e-14 0 
    0.946237 3.849172e-02 1.289700e-14 0 
    0.948418 3.830656e-02 1.277600e-14 0 
    0.950605 3.874248e-02 1.286200e-14 0 
    0.952796 3.882747e-02 1.283100e-14 0 
    0.954993 3.864193e-02 1.271100e-14 0 
    0.957194 3.863396e-02 1.265000e-14 0 
    0.959401 3.757278e-02 1.224600e-14 0 
    0.961612 3.870784e-02 1.255800e-14 0 
    0.963829 3.923954e-02 1.267200e-14 0 
    0.966051 3.914069e-02 1.258200e-14 0 
    0.968278 3.922448e-02 1.255100e-14 0 
    0.970510 3.894714e-02 1.240500e-14 0 
    0.972747 3.930036e-02 1.246000e-14 0 
    0.974990 3.920298e-02 1.237200e-14 0 
    0.977237 3.919606e-02 1.231300e-14 0 
    0.979490 3.918832e-02 1.225400e-14 0 
    0.981748 3.936279e-02 1.225200e-14 0 
    0.984011 3.917329e-02 1.213700e-14 0 
    0.986279 3.971075e-02 1.224700e-14 0 
    0.988553 3.970189e-02 1.218800e-14 0 
    0.990832 3.960372e-02 1.210200e-14 0 
    0.993116 3.968788e-02 1.207200e-14 0 
    0.995405 3.967948e-02 1.201400e-14 0 
    0.997700 3.985603e-02 1.201200e-14 0 
    1.000000 4.003333e-02 1.201000e-14 0 
    1.002305 4.011764e-02 1.198000e-14 0 
    1.006931 3.973513e-02 1.175700e-14 0 
    1.011580 3.953667e-02 1.159100e-14 0 
    1.016249 4.016412e-02 1.166700e-14 0 
    1.020939 4.005274e-02 1.152800e-14 0 
    1.028017 4.049378e-02 1.149500e-14 0 
    1.032761 4.066573e-02 1.143800e-14 0 
    1.035142 4.056413e-02 1.135700e-14 0 
    1.054386 4.068561e-02 1.097900e-14 0 
    1.073990 4.053624e-02 1.054300e-14 0 
    1.093956 4.035007e-02 1.011500e-14 0 
    1.114294 4.072492e-02 9.839700e-15 0 
    1.135010 4.091260e-02 9.527500e-15 0 
    1.156113 4.167376e-02 9.353700e-15 0 
    1.174898 4.176955e-02 9.077800e-15 0 
    1.193988 4.176934e-02 8.789800e-15 0 
    1.216186 4.215607e-02 8.550300e-15 0 
    1.235947 4.264401e-02 8.374900e-15 0 
    1.256030 4.293995e-02 8.165500e-15 0 
    1.276439 4.323772e-02 7.961300e-15 0 
    1.294196 4.323754e-02 7.744300e-15 0 
    1.315225 4.373784e-02 7.585400e-15 0 
    1.336595 4.404105e-02 7.395700e-15 0 
    1.355189 4.455133e-02 7.277500e-15 0 
    1.377209 4.506696e-02 7.128200e-15 0 
    1.396368 4.517072e-02 6.949900e-15 0 
    1.415794 4.517079e-02 6.760500e-15 0 
    1.435490 4.558873e-02 6.637100e-15 0 
    1.455459 4.665054e-02 6.606600e-15 0 
    1.475707 4.686652e-02 6.456300e-15 0 
    1.496236 4.806835e-02 6.441400e-15 0 
    1.517051 4.907522e-02 6.397100e-15 0 
    1.538154 5.068269e-02 6.426600e-15 0 
    1.555965 5.150655e-02 6.382400e-15 0 
    1.577611 5.198309e-02 6.265900e-15 0 
    1.595879 5.174394e-02 6.095100e-15 0 
    1.618080 5.331668e-02 6.109200e-15 0 
    1.636817 5.405761e-02 6.053100e-15 0 
    1.655770 5.405835e-02 5.915400e-15 0 
    1.678804 5.455825e-02 5.807400e-15 0 
    1.698244 5.430729e-02 5.649100e-15 0 
    1.717909 5.418227e-02 5.507800e-15 0 
    1.737800 5.319338e-02 5.284200e-15 0 
    1.757923 5.307167e-02 5.152100e-15 0 
    1.778279 5.246427e-02 4.977200e-15 0 
    1.798871 5.210290e-02 4.830400e-15 0 
    1.819702 5.115209e-02 4.634300e-15 0 
    1.836538 5.091688e-02 4.528800e-15 0 
    1.857805 5.056589e-02 4.395200e-15 0 
    1.879318 4.975768e-02 4.226500e-15 0 
    1.896705 4.941513e-02 4.120800e-15 0 
    1.918669 4.941519e-02 4.027000e-15 0 
    1.936423 4.862530e-02 3.890300e-15 0 
    1.958844 4.784698e-02 3.740900e-15 0 
    1.976970 4.751845e-02 3.647400e-15 0 
    1.999862 4.719082e-02 3.539800e-15 0 
    2.018366 4.719092e-02 3.475200e-15 0 
    2.037042 4.643612e-02 3.357200e-15 0 
    2.060630 4.665154e-02 3.296000e-15 0 
    2.079696 4.622273e-02 3.206100e-15 0 
    2.098940 4.590435e-02 3.125900e-15 0 
    2.118362 4.569428e-02 3.054800e-15 0 
    2.137962 4.548484e-02 2.985300e-15 0 
    2.157745 4.517119e-02 2.910600e-15 0 
    2.177709 4.444909e-02 2.811800e-15 0 
    2.197860 4.455091e-02 2.766800e-15 0 
    2.218197 4.414253e-02 2.691400e-15 0 
    2.238721 4.373861e-02 2.618100e-15 0 
    2.259436 4.343718e-02 2.552600e-15 0 
    2.280341 4.313883e-02 2.488800e-15 0 
    2.301442 3.988896e-02 2.259300e-15 0 
    2.322738 4.035184e-02 2.243800e-15 0 
    2.338837 3.638020e-02 1.995200e-15 0 
    2.360479 3.522530e-02 1.896600e-15 0 
    2.382319 3.629635e-02 1.918600e-15 0 
    2.398834 3.402963e-02 1.774100e-15 0 
    2.421028 3.379474e-02 1.729700e-15 0 
    2.443431 3.418626e-02 1.717800e-15 0 
    2.460366 3.264801e-02 1.618000e-15 0 
    2.483133 3.295083e-02 1.603200e-15 0 
    2.500344 2.936641e-02 1.409200e-15 0 
    2.523480 2.957064e-02 1.393100e-15 0 
    2.540974 3.011980e-02 1.399500e-15 0 
    2.558586 3.018964e-02 1.383500e-15 0 
    2.582261 3.096430e-02 1.393100e-15 0 
    2.600159 3.075049e-02 1.364500e-15 0 
    2.624220 3.110646e-02 1.355100e-15 0 
    2.642408 3.075014e-02 1.321200e-15 0 
    2.660726 3.082162e-02 1.306100e-15 0 
    2.679168 3.060913e-02 1.279300e-15 0 
    2.703959 3.075172e-02 1.261800e-15 0 
    2.722701 3.068035e-02 1.241600e-15 0 
    2.741575 3.046831e-02 1.216100e-15 0 
    2.760578 3.039933e-02 1.196700e-15 0 
    2.779712 3.018860e-02 1.172100e-15 0 
    2.805433 3.025927e-02 1.153400e-15 0 
    2.824881 3.012166e-02 1.132400e-15 0 
    2.844461 2.998239e-02 1.111700e-15 0 
    2.864177 2.977601e-02 1.088900e-15 0 
    2.884032 2.957199e-02 1.066600e-15 0 
    2.904021 2.950263e-02 1.049500e-15 0 
    2.924153 2.930029e-02 1.028000e-15 0 
    2.944421 2.909812e-02 1.006900e-15 0 
    2.964832 2.896410e-02 9.885100e-16 0 
    2.985382 2.883106e-02 9.704700e-16 0 
    3.006077 2.863245e-02 9.505600e-16 0 
    3.019952 2.836992e-02 9.332100e-16 0 
    3.040884 2.817461e-02 9.140700e-16 0 
    3.061964 2.817469e-02 9.015300e-16 0 
    3.083187 2.804536e-02 8.850800e-16 0 
    3.104560 2.791635e-02 8.689200e-16 0 
    3.126079 2.785223e-02 8.550300e-16 0 
    3.140510 2.766056e-02 8.413600e-16 0 
    3.162278 2.753334e-02 8.260000e-16 0 
    3.184196 2.747021e-02 8.128000e-16 0 
    3.206270 2.746998e-02 8.016400e-16 0 
    3.221068 2.734370e-02 7.906400e-16 0 
    3.243397 2.747025e-02 7.834000e-16 0 
    3.265878 2.804543e-02 7.888300e-16 0 
    3.280952 2.950267e-02 8.222100e-16 0 
    3.303696 3.403003e-02 9.353700e-16 0 
    3.326594 3.395156e-02 9.204100e-16 0 
    3.341952 2.896401e-02 7.780000e-16 0 
    3.365115 2.715570e-02 7.194200e-16 0 
    3.388443 2.629427e-02 6.870400e-16 0 
    3.404082 2.569550e-02 6.652400e-16 0 
    3.427677 2.540166e-02 6.486100e-16 0 
    3.443501 2.511066e-02 6.353000e-16 0 
    3.467368 2.488045e-02 6.208400e-16 0 
    3.483372 2.459578e-02 6.081100e-16 0 
    3.507520 2.442659e-02 5.956400e-16 0 
    3.523708 2.420227e-02 5.847600e-16 0 
    3.548136 2.403585e-02 5.727700e-16 0 
    3.564512 2.376059e-02 5.610200e-16 0 
    3.589218 2.365138e-02 5.507800e-16 0 
    3.605788 2.343471e-02 5.407300e-16 0 
    3.622430 2.321982e-02 5.308600e-16 0 
    3.647538 2.305986e-02 5.199700e-16 0 
    3.664377 2.284851e-02 5.104800e-16 0 
    3.689775 2.269119e-02 5.000100e-16 0 
    3.706805 2.243167e-02 4.897600e-16 0 
    3.723918 2.222601e-02 4.808200e-16 0 
    3.749729 2.217476e-02 4.731300e-16 0 
    3.767040 2.187053e-02 4.623600e-16 0 
    3.784427 2.177022e-02 4.560200e-16 0 
    3.810657 2.166985e-02 4.476900e-16 0 
    3.828249 2.147127e-02 4.395200e-16 0 
    3.845918 2.132381e-02 4.325000e-16 0 
    3.863669 2.117677e-02 4.255800e-16 0 
    3.890453 2.103095e-02 4.168500e-16 0 
    3.908409 2.088641e-02 4.101900e-16 0 
    3.926448 2.069475e-02 4.027000e-16 0 
    3.944575 2.055225e-02 3.962600e-16 0 
    3.971915 2.045793e-02 3.890300e-16 0 
    3.990248 2.031710e-02 3.828100e-16 0 
    4.008669 2.008464e-02 3.749600e-16 0 
    4.027171 1.994611e-02 3.689600e-16 0 
    4.045758 1.985457e-02 3.639000e-16 0 
    4.064435 1.962753e-02 3.564400e-16 0 
    4.092607 1.967277e-02 3.523600e-16 0 
    4.111496 1.953698e-02 3.467200e-16 0 
    4.130477 1.940272e-02 3.411800e-16 0 
    4.149541 1.931363e-02 3.365000e-16 0 
    4.168693 1.918068e-02 3.311200e-16 0 
    4.187938 1.904833e-02 3.258200e-16 0 
    4.207267 1.896083e-02 3.213500e-16 0 
    4.226686 1.883017e-02 3.162100e-16 0 
    4.246193 1.874415e-02 3.118800e-16 0 
    4.265796 1.861494e-02 3.068900e-16 0 
    4.285485 1.857230e-02 3.033800e-16 0 
    4.305264 1.806574e-02 2.924000e-16 0 
    4.325140 1.757382e-02 2.818300e-16 0 
    4.345102 1.769551e-02 2.811800e-16 0 
    4.365157 1.725267e-02 2.716300e-16 0 
    4.385309 1.705527e-02 2.660600e-16 0 
    4.405549 1.697693e-02 2.624100e-16 0 
    4.425883 1.659076e-02 2.540900e-16 0 
    4.446310 1.655249e-02 2.511800e-16 0 
    4.466837 1.643831e-02 2.471600e-16 0 
    4.487454 1.617558e-02 2.409800e-16 0 
    4.508165 1.628797e-02 2.404300e-16 0 
    4.528977 1.613855e-02 2.360400e-16 0 
    4.549880 1.595389e-02 2.312000e-16 0 
    4.570880 1.602698e-02 2.301300e-16 0 
    4.591982 1.602699e-02 2.280200e-16 0 
    4.613176 1.577093e-02 2.223200e-16 0 
    4.634468 1.591685e-02 2.223200e-16 0 
    4.645151 1.577094e-02 2.192700e-16 0 
    4.666595 1.573469e-02 2.167600e-16 0 
    4.688134 1.580774e-02 2.157700e-16 0 
    4.709772 1.573440e-02 2.128000e-16 0 
    4.731515 1.569867e-02 2.103700e-16 0 
    4.753353 1.580702e-02 2.098800e-16 0 
    4.775292 1.573512e-02 2.070100e-16 0 
    4.786299 1.566265e-02 2.051100e-16 0 
    4.808395 1.566271e-02 2.032300e-16 0 
    4.830588 1.555483e-02 1.999800e-16 0 
    4.852884 1.573486e-02 2.004400e-16 0 
    4.875287 1.566260e-02 1.976900e-16 0 
    4.886525 1.551919e-02 1.949800e-16 0 
    4.909079 1.555433e-02 1.936300e-16 0 
    4.931736 1.551907e-02 1.914200e-16 0 
    4.954504 1.555469e-02 1.901000e-16 0 
    4.977371 1.551857e-02 1.879200e-16 0 
    4.988845 1.555453e-02 1.874900e-16 0 
    5.011870 1.557452e-02 1.860100e-16 0 
    5.035008 1.571950e-02 1.860200e-16 0 
    5.046614 1.573772e-02 1.853800e-16 0 
    5.069906 1.577451e-02 1.841100e-16 0 
    5.093306 1.595678e-02 1.845300e-16 0 
    5.105052 1.604871e-02 1.847400e-16 0 
    5.116820 1.610445e-02 1.845300e-16 0 
    5.128614 1.612267e-02 1.838900e-16 0 
    5.140436 1.617858e-02 1.836800e-16 0 
    5.152285 1.627184e-02 1.838900e-16 0 
    5.164162 1.632739e-02 1.836700e-16 0 
    5.176071 1.638313e-02 1.834500e-16 0 
    5.188002 1.651527e-02 1.840800e-16 0 
    5.199961 1.661042e-02 1.842900e-16 0 
    5.211947 1.666716e-02 1.840700e-16 0 
    5.223961 1.672408e-02 1.838500e-16 0 
    5.236003 1.678117e-02 1.836300e-16 0 
    5.248072 1.683842e-02 1.834100e-16 0 
    5.260175 1.693462e-02 1.836100e-16 0 
    5.272300 1.703131e-02 1.838100e-16 0 
    5.284453 1.716763e-02 1.844300e-16 0 
    5.296634 1.730578e-02 1.850600e-16 0 
    5.308843 1.736405e-02 1.848300e-16 0 
    5.321080 1.738284e-02 1.841800e-16 0 
    5.333352 1.748208e-02 1.843800e-16 0 
    5.345646 1.758182e-02 1.845800e-16 0 
    5.357968 1.768210e-02 1.847800e-16 0 
    5.370318 1.782331e-02 1.854000e-16 0 
    5.382697 1.792489e-02 1.856000e-16 0 
    5.395105 1.802606e-02 1.857900e-16 0 
    5.407541 1.812875e-02 1.859900e-16 0 
    5.420011 1.827317e-02 1.866100e-16 0 
    5.432505 1.837719e-02 1.868100e-16 0 
    5.445027 1.848079e-02 1.870000e-16 0 
    5.457579 1.854325e-02 1.867700e-16 0 
    5.470159 1.873357e-02 1.878200e-16 0 
    5.482768 1.888316e-02 1.884500e-16 0 
    5.495406 1.898944e-02 1.886400e-16 0 
    5.508079 1.909735e-02 1.888400e-16 0 
    5.520776 1.924950e-02 1.894700e-16 0 
    5.533502 1.940265e-02 1.901000e-16 0 
    5.546257 1.960191e-02 1.911700e-16 0 
    5.559041 1.984896e-02 1.926900e-16 0 
    5.571855 1.991470e-02 1.924400e-16 0 
    5.584705 2.007320e-02 1.930800e-16 0 
    5.597578 2.032564e-02 1.946100e-16 0 
    5.610481 2.048660e-02 1.952500e-16 0 
    5.623413 2.064967e-02 1.959000e-16 0 
    5.636376 2.086147e-02 1.970000e-16 0 
    5.649368 2.107478e-02 1.981000e-16 0 
    5.662390 2.129067e-02 1.992100e-16 0 
    5.675448 2.155863e-02 2.007900e-16 0 
    5.688531 2.182964e-02 2.023800e-16 0 
    5.701643 2.205392e-02 2.035200e-16 0 
    5.714786 2.227873e-02 2.046500e-16 0 
    5.727959 2.255873e-02 2.062700e-16 0 
    5.741162 2.294741e-02 2.088600e-16 0 
    5.754402 2.323549e-02 2.105100e-16 0 
    5.767667 2.358115e-02 2.126600e-16 0 
    5.780962 2.393283e-02 2.148400e-16 0 
    5.794287 2.428838e-02 2.170300e-16 0 
    5.807643 2.470629e-02 2.197500e-16 0 
    5.821030 2.513205e-02 2.225100e-16 0 
    5.834448 2.562363e-02 2.258200e-16 0 
    5.847904 2.606456e-02 2.286500e-16 0 
    5.861383 2.663491e-02 2.325800e-16 0 
    5.874894 2.721804e-02 2.365800e-16 0 
    5.888436 2.781407e-02 2.406500e-16 0 
    5.902009 2.848817e-02 2.453500e-16 0 
    5.915614 2.917957e-02 2.501500e-16 0 
    5.955481 3.405022e-03 2.880100e-17 3 
    5.986466 3.368751e-02 2.820000e-16 3 
    6.017451 3.855249e-02 3.194100e-16 3 
    6.048437 3.795182e-02 3.112200e-16 3 
    6.079422 5.792765e-02 4.702000e-16 3 
    6.110407 5.422712e-02 4.357100e-16 3 
    6.141393 6.387073e-02 5.080300e-16 3 
    6.172378 5.571869e-02 4.387500e-16 3 
    6.203363 1.077526e-01 8.400300e-16 3 
    6.234349 1.557405e-01 1.202100e-15 3 
    6.265334 1.115754e-01 8.527100e-16 3 
    6.296319 1.185794e-01 8.973400e-16 3 
    6.327305 9.590867e-02 7.186900e-16 3 
    6.358290 7.200874e-02 5.343500e-16 3 
    6.389276 5.720234e-02 4.203700e-16 3 
    6.420261 4.077732e-02 2.967800e-16 3 
    6.451246 5.071362e-02 3.655600e-16 3 
    6.482232 4.685576e-02 3.345300e-16 3 
    6.513217 3.030345e-02 2.143000e-16 3 
    6.544202 3.204142e-02 2.244500e-16 3 
    6.575188 2.725271e-02 1.891100e-16 3 
    6.606173 3.826197e-02 2.630200e-16 3 
    6.637158 2.627547e-02 1.789400e-16 3 
    6.668145 3.958793e-02 2.671000e-16 3 
    6.699129 4.874983e-02 3.258800e-16 3 
    6.730114 5.615453e-02 3.719300e-16 3 
    6.761100 6.239753e-02 4.095000e-16 3 
    6.792085 5.563724e-02 3.618100e-16 3 
    6.823071 3.256939e-02 2.098800e-16 3 
    6.854056 9.243879e-03 5.903100e-17 3 
    6.885041 2.650345e-02 1.677300e-16 3 
    6.916027 3.178877e-02 1.993800e-16 3 
    6.947012 2.516166e-02 1.564100e-16 3 
    6.977998 4.115161e-02 2.535400e-16 3 
    7.008983 7.841631e-02 4.788700e-16 3 
    7.039968 5.669465e-02 3.431800e-16 3 
    7.070954 5.463657e-02 3.278300e-16 3 
    7.101939 5.396144e-02 3.209600e-16 3 
    7.132924 4.202743e-02 2.478100e-16 3 
    7.163910 3.781205e-02 2.210300e-16 3 
    7.194895 5.601310e-02 3.246100e-16 3 
    7.225881 4.339626e-02 2.493400e-16 3 
    7.256866 6.504823e-02 3.705600e-16 3 
    7.287851 5.596139e-02 3.160900e-16 3 
    7.318838 6.589615e-02 3.690600e-16 3 
    7.349822 1.116681e-01 6.201500e-16 3 
    7.380807 1.354190e-01 7.457500e-16 3 
    7.411793 1.275144e-01 6.963600e-16 3 
    7.442778 1.056160e-01 5.719800e-16 3 
    7.473763 1.232860e-01 6.621500e-16 3 
    7.504748 1.312566e-01 6.991500e-16 3 
    7.533706 1.522726e-01 8.048700e-16 3 
    7.535734 1.463806e-01 7.733100e-16 3 
    7.566720 1.352617e-01 7.087300e-16 3 
    7.595799 2.135912e-01 1.110600e-15 3 
    7.597705 1.715706e-01 8.916600e-16 3 
    7.657894 2.076365e-01 1.062200e-15 3 
    7.719988 2.127259e-01 1.070800e-15 3 
    7.782082 1.918627e-01 9.504300e-16 3 
    7.844176 1.712328e-01 8.348600e-16 3 
    7.906271 1.801534e-01 8.646100e-16 3 
    7.968365 1.691735e-01 7.993100e-16 3 
    8.030459 1.351481e-01 6.287100e-16 3 
    8.092554 1.113146e-01 5.099200e-16 3 
    8.154648 1.048678e-01 4.731000e-16 3 
    8.216741 8.744521e-02 3.885600e-16 3 
    8.278836 1.001174e-01 4.382200e-16 3 
    8.340930 9.318818e-02 4.018400e-16 3 
    8.403025 9.631317e-02 4.092000e-16 3 
    8.465119 1.055215e-01 4.417700e-16 3 
    8.527213 1.186125e-01 4.893700e-16 3 
    8.589307 1.373516e-01 5.585200e-16 3 
    8.651402 1.429049e-01 5.727900e-16 3 
    8.713495 1.165120e-01 4.603700e-16 3 
    8.775590 1.047734e-01 4.081500e-16 3 
    8.837684 7.861755e-02 3.019700e-16 3 
    8.899778 6.911784e-02 2.617900e-16 3 
    8.961872 4.548247e-02 1.698900e-16 3 
    9.023966 5.562074e-02 2.049100e-16 3 
    9.086060 5.151250e-02 1.871900e-16 3 
    9.148155 5.150205e-02 1.846200e-16 3 
    9.210249 4.081674e-02 1.443500e-16 3 
    9.272344 5.541176e-02 1.933500e-16 3 
    9.334438 4.453593e-02 1.533400e-16 3 
    9.396532 4.265523e-02 1.449300e-16 3 
    9.458626 4.155976e-02 1.393600e-16 3 
    9.520720 3.423024e-02 1.132900e-16 3 
    9.582815 3.089785e-02 1.009400e-16 3 
    9.644909 3.994462e-02 1.288200e-16 3 
    9.707002 4.055483e-02 1.291200e-16 3 
    9.769098 3.740427e-02 1.175800e-16 3 
    9.831192 4.421200e-02 1.372300e-16 3 
    9.893286 4.200233e-02 1.287400e-16 3 
    9.955380 4.350250e-02 1.316800e-16 3 
   10.017470 4.123704e-02 1.232800e-16 3 
   10.079570 4.433048e-02 1.309000e-16 3 
   10.141659 4.412062e-02 1.286900e-16 3 
   10.203760 4.227139e-02 1.218000e-16 3 
   10.265850 4.000165e-02 1.138700e-16 3 
   10.327949 3.189223e-02 8.969700e-17 3 
   10.390041 3.770077e-02 1.047700e-16 3 
   10.452130 3.663417e-02 1.006000e-16 3 
   10.514230 4.382163e-02 1.189200e-16 3 
   10.576320 4.287165e-02 1.149800e-16 3 
   10.638420 5.008415e-02 1.327600e-16 3 
   10.700510 5.853287e-02 1.533600e-16 3 
   10.762600 6.389765e-02 1.654900e-16 3 
   10.824700 6.344588e-02 1.624400e-16 3 
   10.886791 5.411329e-02 1.369700e-16 3 
   10.948890 5.914790e-02 1.480200e-16 3 
   11.010980 8.731826e-02 2.160600e-16 3 
   11.073080 9.780437e-02 2.393000e-16 3 
   11.135170 1.235126e-01 2.988400e-16 3 
   11.197260 1.655123e-01 3.960300e-16 3 
   11.259360 2.751697e-01 6.511700e-16 3 
   11.321450 2.727953e-01 6.384900e-16 3 
   11.383550 2.157853e-01 4.995600e-16 3 
   11.445640 1.718537e-01 3.935500e-16 3 
   11.507740 1.344940e-01 3.046800e-16 3 
   11.569830 1.033228e-01 2.315600e-16 3 
   11.631920 1.036275e-01 2.297700e-16 3 
   11.694020 8.598391e-02 1.886300e-16 3 
   11.756110 8.121452e-02 1.762900e-16 3 
   11.818209 8.004026e-02 1.719200e-16 3 
   11.880299 7.914275e-02 1.682200e-16 3 
   11.942400 9.972530e-02 2.097700e-16 3 
   12.004490 1.099110e-01 2.288100e-16 3 
   12.066580 1.029991e-01 2.122200e-16 3 
   12.128680 1.077445e-01 2.197300e-16 3 
   12.190770 9.401873e-02 1.897900e-16 3 
   12.252870 1.003388e-01 2.005000e-16 3 
   12.314959 1.001652e-01 1.981400e-16 3 
   12.377051 1.185446e-01 2.321500e-16 3 
   12.439150 1.101179e-01 2.135000e-16 3 
   12.501240 1.242851e-01 2.385800e-16 3 
   12.563340 1.301581e-01 2.473900e-16 3 
   12.625430 1.410916e-01 2.655400e-16 3 
   12.687530 1.461961e-01 2.724600e-16 3 
   12.749620 1.530381e-01 2.824400e-16 3 
   12.811710 1.799521e-01 3.289000e-16 3 
   12.873810 2.281563e-01 4.129900e-16 3 
   12.935900 1.595563e-01 2.860500e-16 3 
   12.998000 8.786423e-02 1.560200e-16 3 
   13.060090 8.278134e-02 1.456000e-16 3 
   13.122180 9.306382e-02 1.621400e-16 3 
   13.184280 8.929981e-02 1.541200e-16 3 
   13.246370 9.580462e-02 1.638000e-16 3 
   13.308470 9.221807e-02 1.562000e-16 3 
   13.370559 8.659112e-02 1.453100e-16 3 
   13.432659 8.961070e-02 1.489900e-16 3 
   13.494750 8.210655e-02 1.352600e-16 3 
   13.556841 9.273326e-02 1.513700e-16 3 
   13.618941 9.699135e-02 1.568800e-16 3 
   13.681030 7.403220e-02 1.186600e-16 3 
   13.743130 8.478537e-02 1.346700e-16 3 
   13.805220 8.406030e-02 1.323200e-16 3 
   13.867320 9.008735e-02 1.405400e-16 3 
   13.929409 7.730094e-02 1.195200e-16 3 
   13.991500 9.388097e-02 1.438700e-16 3 
   14.053600 8.961400e-02 1.361200e-16 3 
   14.115691 8.518054e-02 1.282500e-16 3 
   14.177789 8.191145e-02 1.222500e-16 3 
   14.239880 8.276565e-02 1.224500e-16 3 
   14.301980 8.979597e-02 1.317000e-16 3 
   14.364070 8.064616e-02 1.172600e-16 3 
   14.426159 7.980482e-02 1.150400e-16 3 
   14.488261 7.485380e-02 1.069800e-16 3 
   14.541691 8.257543e-02 1.171500e-16 3 
   14.633380 7.720309e-02 1.081600e-16 3 
   14.725080 7.685106e-02 1.063300e-16 3 
   14.816770 7.321548e-02 1.000500e-16 3 
   14.908459 8.129609e-02 1.097300e-16 3 
   15.000150 7.797156e-02 1.039600e-16 3 
   15.091850 7.842672e-02 1.033000e-16 3 
   15.183541 8.346313e-02 1.086100e-16 3 
   15.275230 7.893644e-02 1.014900e-16 3 
   15.366930 8.794735e-02 1.117300e-16 3 
   15.458620 8.154417e-02 1.023700e-16 3 
   15.550309 9.641856e-02 1.196200e-16 3 
   15.642000 1.130141e-01 1.385700e-16 3 
   15.733700 1.034756e-01 1.254000e-16 3 
   15.825391 9.769781e-02 1.170300e-16 3 
   15.917080 9.791265e-02 1.159400e-16 3 
   16.008780 1.044687e-01 1.222900e-16 3 
   16.100470 1.025581e-01 1.186900e-16 3 
   16.192159 9.996279e-02 1.143800e-16 3 
   16.283859 1.115545e-01 1.262100e-16 3 
   16.375550 1.314961e-01 1.471100e-16 3 
   16.467239 1.569351e-01 1.736200e-16 3 
   16.558930 1.680560e-01 1.838700e-16 3 
   16.650631 1.580565e-01 1.710300e-16 3 
   16.742319 1.571485e-01 1.681900e-16 3 
   16.834009 1.515915e-01 1.604800e-16 3 
   16.925700 1.562172e-01 1.635900e-16 3 
   17.017400 1.694113e-01 1.755000e-16 3 
   17.109091 1.941033e-01 1.989300e-16 3 
   17.200781 1.890491e-01 1.916900e-16 3 
   17.292481 1.771752e-01 1.777500e-16 3 
   17.384170 1.756945e-01 1.744100e-16 3 
   17.475861 1.812990e-01 1.780900e-16 3 
   17.567561 1.705224e-01 1.657600e-16 3 
   17.659250 1.548019e-01 1.489200e-16 3 
   17.750941 1.457213e-01 1.387400e-16 3 
   17.842630 1.563569e-01 1.473400e-16 3 
   17.934330 1.516855e-01 1.414800e-16 3 
   18.026020 1.506410e-01 1.390800e-16 3 
   18.117709 1.491684e-01 1.363300e-16 3 
   18.209409 1.392426e-01 1.259800e-16 3 
   18.301100 1.458510e-01 1.306400e-16 3 
   18.392789 1.643323e-01 1.457300e-16 3 
   18.484489 1.662939e-01 1.460100e-16 3 
   18.576180 1.661879e-01 1.444800e-16 3 
   18.667870 1.772301e-01 1.525700e-16 3 
   18.759559 2.572308e-01 2.192800e-16 3 
   18.851259 2.533077e-01 2.138400e-16 3 
   18.942950 1.839390e-01 1.537800e-16 3 
   19.034639 1.694317e-01 1.402900e-16 3 
   19.126341 1.726412e-01 1.415800e-16 3 
   19.218031 1.707795e-01 1.387200e-16 3 
   19.309719 1.771731e-01 1.425500e-16 3 
   19.401409 1.608169e-01 1.281700e-16 3 
   19.493111 1.739555e-01 1.373400e-16 3 
   19.584800 1.649838e-01 1.290400e-16 3 
   19.676491 1.569435e-01 1.216100e-16 3 
   19.768191 1.738586e-01 1.334700e-16 3 
   19.859880 1.725433e-01 1.312400e-16 3 
   19.951570 1.712874e-01 1.290900e-16 3 
   20.043261 1.794538e-01 1.340100e-16 3 
   20.134961 1.843159e-01 1.363900e-16 3 
   20.226650 1.817299e-01 1.332600e-16 3 
   20.318341 1.938123e-01 1.408400e-16 3 
   20.410041 1.906501e-01 1.373000e-16 3 
   20.520050 1.971882e-01 1.404900e-16 3 
   20.696581 2.033370e-01 1.424100e-16 3 
   20.873220 2.133290e-01 1.468900e-16 3 
   21.049950 2.088923e-01 1.414300e-16 3 
   21.226789 2.219691e-01 1.477900e-16 3 
   21.403730 2.215467e-01 1.450800e-16 3 
   21.580780 2.208026e-01 1.422300e-16 3 
   21.757919 2.383289e-01 1.510300e-16 3 
   21.935169 2.532301e-01 1.578900e-16 3 
   22.112520 2.411568e-01 1.479600e-16 3 
   22.289980 2.306181e-01 1.392500e-16 3 
   22.467541 2.565681e-01 1.524800e-16 3 
   22.645200 2.548470e-01 1.490900e-16 3 
   22.822969 2.639512e-01 1.520200e-16 3 
   23.000839 2.612040e-01 1.481200e-16 3 
   23.178809 2.729446e-01 1.524100e-16 3 
   23.356889 2.733177e-01 1.503000e-16 3 
   23.535070 2.971486e-01 1.609400e-16 3 
   23.713359 2.853229e-01 1.522200e-16 3 
   23.891759 2.832390e-01 1.488600e-16 3 
   24.070259 2.932422e-01 1.518400e-16 3 
   24.248859 3.036273e-01 1.549100e-16 3 
   24.427570 3.065678e-01 1.541300e-16 3 
   24.606380 3.168647e-01 1.570000e-16 3 
   24.785311 3.174967e-01 1.550500e-16 3 
   24.964331 3.131046e-01 1.507200e-16 3 
   25.143459 3.305529e-01 1.568600e-16 3 
   25.322700 3.324611e-01 1.555400e-16 3 
   25.502050 3.367969e-01 1.553600e-16 3 
   25.681500 3.487645e-01 1.586400e-16 3 
   25.861059 3.510279e-01 1.574600e-16 3 
   26.040730 3.705246e-01 1.639200e-16 3 
   26.220509 3.729999e-01 1.627600e-16 3 
   26.400391 3.661007e-01 1.575800e-16 3 
   26.580378 3.760787e-01 1.596900e-16 3 
   26.760481 3.807628e-01 1.595100e-16 3 
   26.940678 3.784080e-01 1.564100e-16 3 
   27.121000 3.916306e-01 1.597300e-16 3 
   27.301419 4.122627e-01 1.659300e-16 3 
   27.481950 4.122196e-01 1.637400e-16 3 
   27.662591 4.192890e-01 1.643800e-16 3 
   27.843341 4.220212e-01 1.633100e-16 3 
   28.024200 4.295896e-01 1.641000e-16 3 
   28.205169 4.457363e-01 1.680900e-16 3 
   28.386250 4.586764e-01 1.707700e-16 3 
   28.567441 4.539141e-01 1.668600e-16 3 
   28.748741 4.508779e-01 1.636600e-16 3 
   28.930150 4.566977e-01 1.637000e-16 3 
   29.111669 4.728990e-01 1.674000e-16 3 
   29.293300 4.782177e-01 1.671900e-16 3 
   29.475041 4.969700e-01 1.716100e-16 3 
   29.656891 4.894298e-01 1.669400e-16 3 
   29.838859 4.991938e-01 1.682000e-16 3 
   30.020941 4.993264e-01 1.662100e-16 3 
   30.203119 5.087802e-01 1.673200e-16 3 
   30.385419 5.352525e-01 1.739200e-16 3 
   30.567828 5.412622e-01 1.737800e-16 3 
   30.750359 5.521899e-01 1.751900e-16 3 
   30.932991 5.479242e-01 1.717900e-16 3 
   31.115741 5.519325e-01 1.710200e-16 3 
   31.298609 5.710106e-01 1.748700e-16 3 
   31.481581 5.640624e-01 1.707400e-16 3 
   31.664672 5.812036e-01 1.739000e-16 3 
   31.847878 5.995114e-01 1.773200e-16 3 
   32.031188 6.048594e-01 1.768600e-16 3 
   32.214619 6.285152e-01 1.816900e-16 3 
   32.398172 6.713157e-01 1.918700e-16 3 
   32.581828 6.463934e-01 1.826700e-16 3 
   32.765597 6.660875e-01 1.861300e-16 3 
   32.949491 6.888569e-01 1.903500e-16 3 
   33.133500 7.053916e-01 1.927600e-16 3 
   33.317619 7.349732e-01 1.986300e-16 3 
   33.501850 8.350836e-01 2.232100e-16 3 
   33.686200 1.036149e+00 2.739300e-16 3 
   33.870672 8.126159e-01 2.125000e-16 3 
   34.055259 7.425561e-01 1.920800e-16 3 
   34.239959 7.248793e-01 1.854900e-16 3 
   34.424772 7.215070e-01 1.826500e-16 3 
   34.609709 7.753966e-01 1.942000e-16 3 
   34.794763 8.805646e-01 2.182000e-16 3 
   34.979931 1.082923e+00 2.655100e-16 3 
