# NGC 1275       
# 
# An Atlas of Galaxy Spectral Energy Distributions from the Ultraviolet to the Mid-Infrared
# Brown et al. (2014)
# http://dx.doi.org/10.5072/03/529D3551F0117
# http://dx.doi.org/10.17909/t9-5bxk-dh29
# 
# The Spectral Energy Distributions of Active Galactic Nuclei
# Brown et al. (2019)
# http://dx.doi.org/10.17909/t9-3dbt-8734
# 
# Column 1: Observed wavelength (um)
# Column 2: f_nu (Jy)
# Column 3: f_lam (erg/s/cm2/A)
# Column 4: Source (0 = model, 1 = Optical Spectrun, 2 = Akari, 3 = Spitzer IRS)
# 
    0.010186 2.709136e-13 7.833300e-22 0 
    0.010375 3.897667e-13 1.086300e-21 0 
    0.010593 5.150514e-13 1.377000e-21 0 
    0.010789 6.930994e-13 1.786300e-21 0 
    0.010990 9.480433e-13 2.354800e-21 0 
    0.011194 1.498990e-12 3.588800e-21 0 
    0.011588 2.487927e-12 5.558300e-21 0 
    0.011995 3.879916e-12 8.089900e-21 0 
    0.012303 1.478572e-11 2.930500e-20 0 
    0.012706 2.161929e-11 4.017400e-20 0 
    0.012912 2.551590e-11 4.591400e-20 0 
    0.013032 2.810907e-11 4.965300e-20 0 
    0.013335 3.522184e-11 5.942200e-20 0 
    0.013428 4.244706e-11 7.062300e-20 0 
    0.013646 4.895921e-11 7.887600e-20 0 
    0.013932 6.789640e-11 1.049400e-19 0 
    0.014256 8.333252e-11 1.230100e-19 0 
    0.014555 2.232808e-10 3.161900e-19 0 
    0.014962 5.725405e-10 7.672700e-19 0 
    0.015382 7.093289e-10 8.993800e-19 0 
    0.015776 8.807110e-10 1.061600e-18 0 
    0.016181 1.088493e-09 1.247200e-18 0 
    0.016482 1.267186e-09 1.399400e-18 0 
    0.016904 1.566074e-09 1.644200e-18 0 
    0.017298 1.882897e-09 1.887800e-18 0 
    0.017620 2.171905e-09 2.098700e-18 0 
    0.018030 2.587102e-09 2.387500e-18 0 
    0.018323 2.936427e-09 2.623900e-18 0 
    0.018535 3.204828e-09 2.798600e-18 0 
    0.018923 3.765330e-09 3.154600e-18 0 
    0.019454 4.590318e-09 3.638700e-18 0 
    0.019724 5.161992e-09 3.980600e-18 0 
    0.020137 5.967860e-09 4.415200e-18 0 
    0.020559 6.931546e-09 4.919800e-18 0 
    0.020845 7.688291e-09 5.308200e-18 0 
    0.021380 8.746541e-09 5.740400e-18 0 
    0.021979 1.106213e-08 6.869800e-18 0 
    0.022387 1.261297e-08 7.550000e-18 0 
    0.022699 1.367219e-08 7.960600e-18 0 
    0.023121 1.555380e-08 8.728600e-18 0 
    0.023388 2.493584e-08 1.367600e-17 0 
    0.023823 4.527040e-08 2.393000e-17 0 
    0.024434 6.191698e-08 3.111300e-17 0 
    0.025003 6.543445e-08 3.140100e-17 0 
    0.025645 7.653041e-08 3.491000e-17 0 
    0.026122 6.995771e-08 3.075700e-17 0 
    0.026485 8.468903e-08 3.622000e-17 0 
    0.026853 9.414708e-08 3.916900e-17 0 
    0.027353 1.013519e-07 4.063900e-17 0 
    0.027861 1.085979e-07 4.197100e-17 0 
    0.028379 1.163649e-07 4.334600e-17 0 
    0.028907 1.246904e-07 4.476600e-17 0 
    0.029512 1.287712e-07 4.435500e-17 0 
    0.030130 1.418464e-07 4.687500e-17 0 
    0.030620 1.481946e-07 4.741800e-17 0 
    0.031333 1.632400e-07 4.988200e-17 0 
    0.032359 1.865592e-07 5.345000e-17 0 
    0.033343 2.069348e-07 5.584000e-17 0 
    0.034356 2.274190e-07 5.780200e-17 0 
    0.035400 2.487899e-07 5.955900e-17 0 
    0.036308 2.709134e-07 6.165200e-17 0 
    0.037239 2.991020e-07 6.470600e-17 0 
    0.038194 3.241996e-07 6.667200e-17 0 
    0.039174 3.387021e-07 6.621300e-17 0 
    0.040179 3.897800e-07 7.243400e-17 0 
    0.041210 4.393692e-07 7.761500e-17 0 
    0.042170 4.795447e-07 8.089900e-17 0 
    0.042954 5.091343e-07 8.278400e-17 0 
    0.043752 5.442751e-07 8.529900e-17 0 
    0.044875 6.336247e-07 9.439400e-17 0 
    0.045920 7.092784e-07 1.009100e-16 0 
    0.046774 7.530431e-07 1.032600e-16 0 
    0.047863 8.488425e-07 1.111600e-16 0 
    0.048865 9.972995e-07 1.253000e-16 0 
    0.049888 1.046712e-06 1.261700e-16 0 
    0.050933 1.305646e-06 1.509900e-16 0 
    0.051523 1.320762e-06 1.492600e-16 0 
    0.052119 1.904642e-06 2.103500e-16 0 
    0.052966 2.064492e-06 2.207700e-16 0 
    0.053951 2.242993e-06 2.311800e-16 0 
    0.054954 2.248145e-06 2.233300e-16 0 
    0.055976 2.551665e-06 2.443100e-16 0 
    0.057016 3.473939e-06 3.205900e-16 0 
    0.057943 4.254262e-06 3.801400e-16 0 
    0.059020 4.707878e-06 4.054600e-16 0 
    0.059979 5.442748e-06 4.538800e-16 0 
    0.061094 5.442822e-06 4.374700e-16 0 
    0.062087 5.872524e-06 4.570300e-16 0 
    0.063096 8.032013e-06 6.052600e-16 0 
    0.064121 8.606472e-06 6.279800e-16 0 
    0.065163 1.027599e-05 7.260100e-16 0 
    0.066069 1.111270e-05 7.637400e-16 0 
    0.066988 1.139768e-05 7.619800e-16 0 
    0.067608 1.339120e-05 8.789100e-16 0 
    0.068707 1.530483e-05 9.726300e-16 0 
    0.069663 1.488767e-05 9.203300e-16 0 
    0.070795 1.869952e-05 1.119300e-15 0 
    0.071779 1.729087e-05 1.006800e-15 0 
    0.072778 2.316396e-05 1.312000e-15 0 
    0.073790 2.545702e-05 1.402600e-15 0 
    0.074817 2.765766e-05 1.482300e-15 0 
    0.075858 2.950108e-05 1.538000e-15 0 
    0.076913 3.190288e-05 1.617900e-15 0 
    0.077804 3.146590e-05 1.559400e-15 0 
    0.078886 3.748114e-05 1.806900e-15 0 
    0.079799 3.782946e-05 1.782200e-15 0 
    0.080910 4.323479e-05 1.981300e-15 0 
    0.081846 4.729553e-05 2.118100e-15 0 
    0.082985 5.102904e-05 2.223000e-15 0 
    0.083946 5.556740e-05 2.365600e-15 0 
    0.084918 4.850885e-05 2.018100e-15 0 
    0.085901 6.220482e-05 2.529000e-15 0 
    0.087096 6.558860e-05 2.593900e-15 0 
    0.088105 7.191689e-05 2.779400e-15 0 
    0.089125 7.706026e-05 2.910400e-15 0 
    0.090157 8.238017e-05 3.040500e-15 0 
    0.090991 8.726172e-05 3.161900e-15 0 
    0.092045 9.074662e-05 3.213300e-15 0 
    0.093111 9.881676e-05 3.419400e-15 0 
    0.094189 3.067788e-04 1.037400e-14 0 
    0.095060 5.738718e-04 1.905200e-14 0 
    0.096161 9.612191e-04 3.118500e-14 0 
    0.097275 1.290706e-03 4.092100e-14 0 
    0.098175 1.495644e-03 4.655300e-14 0 
    0.099312 4.195995e-04 1.276300e-14 0 
    0.100231 1.360899e-03 4.063900e-14 0 
    0.101158 1.418490e-03 4.158600e-14 0 
    0.102329 1.980702e-03 5.674700e-14 0 
    0.103276 1.985285e-03 5.584000e-14 0 
    0.104232 1.066187e-03 2.944100e-14 0 
    0.105439 1.632402e-03 4.405000e-14 0 
    0.106414 2.772176e-03 7.344200e-14 0 
    0.107399 2.778595e-03 7.226800e-14 0 
    0.108393 2.337903e-03 5.969600e-14 0 
    0.109396 2.759462e-03 6.917400e-14 0 
    0.110408 2.343269e-03 5.766900e-14 0 
    0.111429 3.011769e-03 7.276900e-14 0 
    0.112461 2.970471e-03 7.046000e-14 0 
    0.113501 2.956829e-03 6.885700e-14 0 
    0.114551 2.721576e-03 6.222200e-14 0 
    0.115611 3.402692e-03 7.637400e-14 0 
    0.116413 3.212363e-03 7.111200e-14 0 
    0.117490 3.418444e-03 7.429300e-14 0 
    0.118577 3.563073e-03 7.602300e-14 0 
    0.119674 2.575262e-03 5.394400e-14 0 
    0.120504 3.579528e-03 7.395100e-14 0 
    0.121619 2.778622e-03 5.635700e-14 0 
    0.122744 2.248162e-03 4.476600e-14 0 
    0.123595 1.636183e-03 3.213300e-14 0 
    0.124738 2.876238e-03 5.545600e-14 0 
    0.125603 4.016283e-03 7.637400e-14 0 
    0.126765 4.413933e-03 8.240400e-14 0 
    0.127644 4.343331e-03 7.997300e-14 0 
    0.128825 3.997837e-03 7.226800e-14 0 
    0.129718 4.941122e-03 8.809400e-14 0 
    0.130617 5.197858e-03 9.140000e-14 0 
    0.131826 4.413920e-03 7.619800e-14 0 
    0.132739 4.454716e-03 7.584800e-14 0 
    0.133660 5.405412e-03 9.077100e-14 0 
    0.134896 5.306649e-03 8.748700e-14 0 
    0.135831 4.918356e-03 7.997300e-14 0 
    0.136773 5.699354e-03 9.140000e-14 0 
    0.137721 5.634106e-03 8.911400e-14 0 
    0.138995 5.258025e-03 8.164800e-14 0 
    0.139959 5.505876e-03 8.432300e-14 0 
    0.140929 5.621122e-03 8.490700e-14 0 
    0.141906 4.806441e-03 7.160500e-14 0 
    0.142889 4.963914e-03 7.293700e-14 0 
    0.143880 5.531291e-03 8.015800e-14 0 
    0.144877 5.660057e-03 8.089900e-14 0 
    0.145881 5.791910e-03 8.164800e-14 0 
    0.146893 6.121049e-03 8.510300e-14 0 
    0.147231 6.206188e-03 8.589100e-14 0 
    0.147911 6.106931e-03 8.374200e-14 0 
    0.148936 5.818690e-03 7.869500e-14 0 
    0.149969 5.913255e-03 7.887600e-14 0 
    0.151008 6.092920e-03 8.015800e-14 0 
    0.152055 6.234812e-03 8.089900e-14 0 
    0.153109 6.037034e-03 7.725800e-14 0 
    0.153815 5.556724e-03 7.046000e-14 0 
    0.154525 5.913222e-03 7.429300e-14 0 
    0.155239 5.845570e-03 7.276900e-14 0 
    0.156315 5.209817e-03 6.396500e-14 0 
    0.157036 5.405374e-03 6.575800e-14 0 
    0.158125 5.282326e-03 6.337900e-14 0 
    0.159221 5.634079e-03 6.667200e-14 0 
    0.160325 6.078935e-03 7.094900e-14 0 
    0.161436 6.394730e-03 7.361100e-14 0 
    0.162181 6.573916e-03 7.498000e-14 0 
    0.163305 6.513609e-03 7.327300e-14 0 
    0.164437 6.589082e-03 7.310500e-14 0 
    0.165196 6.424272e-03 7.062300e-14 0 
    0.166341 6.867897e-03 7.446400e-14 0 
    0.167494 7.027867e-03 7.515300e-14 0 
    0.168267 6.726978e-03 7.127600e-14 0 
    0.169434 7.291610e-03 7.619800e-14 0 
    0.170216 6.680707e-03 6.917400e-14 0 
    0.170608 7.513219e-03 7.743700e-14 0 
    0.171396 7.759336e-03 7.924000e-14 0 
    0.172584 7.478676e-03 7.532600e-14 0 
    0.173380 7.308439e-03 7.293700e-14 0 
    0.174582 7.076585e-03 6.965400e-14 0 
    0.175388 7.076556e-03 6.901500e-14 0 
    0.176604 7.600233e-03 7.310500e-14 0 
    0.177419 7.513155e-03 7.160500e-14 0 
    0.178649 7.995143e-03 7.515300e-14 0 
    0.179473 7.565186e-03 7.046000e-14 0 
    0.180717 7.741403e-03 7.111200e-14 0 
    0.181552 7.958355e-03 7.243400e-14 0 
    0.182810 8.429956e-03 7.567400e-14 0 
    0.183654 8.488413e-03 7.550000e-14 0 
    0.184502 7.995094e-03 7.046000e-14 0 
    0.185780 8.256949e-03 7.177000e-14 0 
    0.186638 8.087698e-03 6.965400e-14 0 
    0.187932 7.635257e-03 6.485500e-14 0 
    0.188799 7.741514e-03 6.515500e-14 0 
    0.189671 8.013571e-03 6.682600e-14 0 
    0.190985 8.586643e-03 7.062300e-14 0 
    0.191867 8.069153e-03 6.575800e-14 0 
    0.192753 7.849219e-03 6.337900e-14 0 
    0.193642 8.352632e-03 6.682600e-14 0 
    0.194984 8.181257e-03 6.455700e-14 0 
    0.195884 8.050523e-03 6.294300e-14 0 
    0.196789 8.391259e-03 6.500500e-14 0 
    0.197697 8.786628e-03 6.744400e-14 0 
    0.199067 8.333435e-03 6.308800e-14 0 
    0.199986 9.074463e-03 6.806800e-14 0 
    0.200909 9.393475e-03 6.981500e-14 0 
    0.201837 9.032875e-03 6.651900e-14 0 
    0.203236 8.929425e-03 6.485500e-14 0 
    0.204174 9.243264e-03 6.651900e-14 0 
    0.205116 9.116425e-03 6.500500e-14 0 
    0.206063 9.524075e-03 6.728900e-14 0 
    0.207014 9.137356e-03 6.396500e-14 0 
    0.207970 9.480445e-03 6.575800e-14 0 
    0.208930 8.888514e-03 6.108700e-14 0 
    0.209894 9.179548e-03 6.250900e-14 0 
    0.210863 9.995921e-03 6.744400e-14 0 
    0.211349 9.590156e-03 6.440900e-14 0 
    0.212324 9.995917e-03 6.651900e-14 0 
    0.213304 9.612186e-03 6.337900e-14 0 
    0.214289 9.790861e-03 6.396500e-14 0 
    0.215278 9.972899e-03 6.455700e-14 0 
    0.216272 1.015844e-02 6.515500e-14 0 
    0.217270 9.745887e-03 6.193600e-14 0 
    0.218273 9.927075e-03 6.250900e-14 0 
    0.219281 1.032351e-02 6.440900e-14 0 
    0.220293 1.013512e-02 6.265400e-14 0 
    0.221309 1.018181e-02 6.236600e-14 0 
    0.222331 1.011162e-02 6.136800e-14 0 
    0.223357 1.056386e-02 6.352500e-14 0 
    0.224388 1.044292e-02 6.222200e-14 0 
    0.225424 1.011170e-02 5.969600e-14 0 
    0.226464 9.995971e-03 5.847200e-14 0 
    0.227510 1.053971e-02 6.108700e-14 0 
    0.228560 1.029975e-02 5.914900e-14 0 
    0.229615 1.004216e-02 5.714100e-14 0 
    0.230675 1.029455e-02 5.804000e-14 0 
    0.231739 1.055012e-02 5.893600e-14 0 
    0.232274 1.076668e-02 5.986900e-14 0 
    0.233346 1.027387e-02 5.660500e-14 0 
    0.234423 1.045631e-02 5.708200e-14 0 
    0.235505 1.018645e-02 5.509900e-14 0 
    0.236592 8.643032e-03 4.632200e-14 0 
    0.237684 9.801843e-03 5.205100e-14 0 
    0.238781 9.659333e-03 5.082400e-14 0 
    0.239883 1.024683e-02 5.342100e-14 0 
    0.240436 9.691759e-03 5.029500e-14 0 
    0.241546 9.932173e-03 5.107000e-14 0 
    0.242661 9.433472e-03 4.806100e-14 0 
    0.243781 9.960924e-03 5.028300e-14 0 
    0.244906 9.748379e-03 4.875900e-14 0 
    0.245471 9.925370e-03 4.941600e-14 0 
    0.246604 1.043216e-02 5.146300e-14 0 
    0.247742 1.018577e-02 4.978700e-14 0 
    0.248886 1.065668e-02 5.161100e-14 0 
    0.250035 1.062277e-02 5.097500e-14 0 
    0.250611 1.056939e-02 5.048600e-14 0 
    0.251768 1.034330e-02 4.895300e-14 0 
    0.252930 1.050212e-02 4.924900e-14 0 
    0.254097 9.702655e-03 4.508300e-14 0 
    0.254683 1.093187e-02 5.056100e-14 0 
    0.255859 1.005328e-02 4.607100e-14 0 
    0.256448 1.035391e-02 4.723100e-14 0 
    0.257040 1.011371e-02 4.592300e-14 0 
    0.258226 1.031617e-02 4.641300e-14 0 
    0.258821 1.019339e-02 4.565000e-14 0 
    0.260016 1.083716e-02 4.808800e-14 0 
    0.261216 1.067859e-02 4.695000e-14 0 
    0.261818 1.112545e-02 4.869000e-14 0 
    0.263027 1.108961e-02 4.808800e-14 0 
    0.264241 1.102812e-02 4.738300e-14 0 
    0.264850 1.077201e-02 4.607000e-14 0 
    0.266072 1.071236e-02 4.539500e-14 0 
    0.267301 1.115522e-02 4.683800e-14 0 
    0.267917 1.151511e-02 4.812700e-14 0 
    0.269154 1.232705e-02 5.104800e-14 0 
    0.270396 1.268942e-02 5.206700e-14 0 
    0.271019 1.172821e-02 4.790200e-14 0 
    0.272270 1.218441e-02 4.930900e-14 0 
    0.273527 1.234207e-02 4.948900e-14 0 
    0.274157 1.180771e-02 4.712900e-14 0 
    0.275423 1.218277e-02 4.818000e-14 0 
    0.276058 1.168244e-02 4.598900e-14 0 
    0.277332 1.167079e-02 4.552200e-14 0 
    0.278612 1.218060e-02 4.707500e-14 0 
    0.279254 1.100129e-02 4.232200e-14 0 
    0.280543 1.129828e-02 4.306600e-14 0 
    0.281190 1.168939e-02 4.435200e-14 0 
    0.282488 1.214362e-02 4.565300e-14 0 
    0.283139 1.159118e-02 4.337600e-14 0 
    0.284446 9.992596e-03 3.705100e-14 0 
    0.285102 1.053077e-02 3.886700e-14 0 
    0.286418 1.221833e-02 4.468200e-14 0 
    0.287740 1.281049e-02 4.641800e-14 0 
    0.288403 1.242598e-02 4.481800e-14 0 
    0.289734 1.218641e-02 4.355100e-14 0 
    0.290402 1.173948e-02 4.176100e-14 0 
    0.291743 1.285874e-02 4.532300e-14 0 
    0.292415 1.303062e-02 4.571800e-14 0 
    0.293765 1.301660e-02 4.525000e-14 0 
    0.294442 1.313012e-02 4.543500e-14 0 
    0.295801 1.415138e-02 4.852000e-14 0 
    0.297852 1.377520e-02 4.658200e-14 0 
    0.299916 1.365795e-02 4.555200e-14 0 
    0.301995 1.395314e-02 4.589800e-14 0 
    0.304089 1.409121e-02 4.571600e-14 0 
    0.306196 1.429623e-02 4.574500e-14 0 
    0.308319 1.447044e-02 4.566700e-14 0 
    0.310456 1.464667e-02 4.558900e-14 0 
    0.312608 1.485922e-02 4.561600e-14 0 
    0.314775 1.500518e-02 4.543200e-14 0 
    0.316228 1.523136e-02 4.569400e-14 0 
    0.318420 1.509987e-02 4.467800e-14 0 
    0.320627 1.524754e-02 4.449600e-14 0 
    0.322849 1.553883e-02 4.472400e-14 0 
    0.324340 1.489020e-02 4.246400e-14 0 
    0.326588 1.549197e-02 4.357400e-14 0 
    0.328852 1.493860e-02 4.144100e-14 0 
    0.330370 1.609806e-02 4.424800e-14 0 
    0.332660 1.682552e-02 4.561300e-14 0 
    0.334966 1.687110e-02 4.510900e-14 0 
    0.336512 1.677240e-02 4.443400e-14 0 
    0.338065 1.694509e-02 4.448000e-14 0 
    0.338844 1.740867e-02 4.548700e-14 0 
    0.339625 1.711953e-02 4.452600e-14 0 
    0.340408 1.695174e-02 4.388700e-14 0 
    0.341193 1.659346e-02 4.276200e-14 0 
    0.341979 1.720485e-02 4.413400e-14 0 
    0.342768 1.719386e-02 4.390300e-14 0 
    0.343558 1.585210e-02 4.029100e-14 0 
    0.344350 1.639879e-02 4.148900e-14 0 
    0.345144 1.760063e-02 4.432500e-14 0 
    0.345939 1.812340e-02 4.543200e-14 0 
    0.346737 1.713789e-02 4.276400e-14 0 
    0.347536 1.736472e-02 4.313100e-14 0 
    0.348337 1.850900e-02 4.576200e-14 0 
    0.349140 1.841158e-02 4.531200e-14 0 
    0.349945 1.831493e-02 4.486700e-14 0 
    0.350752 1.661561e-02 4.051700e-14 0 
    0.351560 1.791543e-02 4.348600e-14 0 
    0.352371 1.674701e-02 4.046300e-14 0 
    0.353183 1.756481e-02 4.224400e-14 0 
    0.353997 1.645705e-02 3.939800e-14 0 
    0.354813 1.730053e-02 4.122700e-14 0 
    0.355631 1.716961e-02 4.072700e-14 0 
    0.356451 1.825856e-02 4.311100e-14 0 
    0.357273 1.799568e-02 4.229500e-14 0 
    0.358096 1.810817e-02 4.236400e-14 0 
    0.358922 1.708348e-02 3.978300e-14 0 
    0.359749 1.837712e-02 4.259900e-14 0 
    0.360579 1.931882e-02 4.457600e-14 0 
    0.361410 1.930522e-02 4.434000e-14 0 
    0.362243 1.889612e-02 4.320100e-14 0 
    0.363078 1.774461e-02 4.038200e-14 0 
    0.363915 1.732856e-02 3.925400e-14 0 
    0.364754 1.638544e-02 3.694700e-14 0 
    0.365595 1.687186e-02 3.786900e-14 0 
    0.366437 1.922431e-02 4.295100e-14 0 
    0.366975 1.773837e-02 3.951500e-14 1 
    0.367250 1.970488e-02 4.383000e-14 1 
    0.367525 1.768487e-02 3.927800e-14 1 
    0.367800 1.791877e-02 3.973800e-14 1 
    0.368075 1.449492e-02 3.209700e-14 1 
    0.368350 1.732294e-02 3.830200e-14 1 
    0.368625 2.024859e-02 4.470400e-14 1 
    0.368900 1.943053e-02 4.283400e-14 1 
    0.369175 2.140392e-02 4.711400e-14 1 
    0.369450 2.146812e-02 4.718500e-14 1 
    0.369725 2.129869e-02 4.674300e-14 1 
    0.370000 1.741916e-02 3.817200e-14 1 
    0.370275 1.871098e-02 4.094200e-14 1 
    0.370550 1.891271e-02 4.132200e-14 1 
    0.370825 2.024669e-02 4.417100e-14 1 
    0.371100 1.832393e-02 3.991700e-14 1 
    0.371375 1.734520e-02 3.772900e-14 1 
    0.371650 1.978300e-02 4.296800e-14 1 
    0.371925 1.675616e-02 3.634000e-14 1 
    0.372200 2.146936e-02 4.649300e-14 1 
    0.372475 2.056600e-02 4.447100e-14 1 
    0.372750 2.147589e-02 4.637000e-14 1 
    0.373025 1.837630e-02 3.961900e-14 1 
    0.373300 2.078077e-02 4.473700e-14 1 
    0.373575 1.975029e-02 4.245600e-14 1 
    0.373850 2.098321e-02 4.504000e-14 1 
    0.374125 2.059045e-02 4.413200e-14 1 
    0.374400 1.872509e-02 4.007500e-14 1 
    0.374675 1.645597e-02 3.516700e-14 1 
    0.374950 1.839353e-02 3.925000e-14 1 
    0.375225 1.983925e-02 4.227300e-14 1 
    0.375500 1.889027e-02 4.019200e-14 1 
    0.375775 2.082142e-02 4.423600e-14 1 
    0.376050 2.086039e-02 4.425400e-14 1 
    0.376325 2.047125e-02 4.336500e-14 1 
    0.376600 2.125901e-02 4.496800e-14 1 
    0.376875 1.984652e-02 4.191900e-14 1 
    0.377150 2.235145e-02 4.714100e-14 1 
    0.377425 2.139498e-02 4.505800e-14 1 
    0.377700 2.147610e-02 4.516300e-14 1 
    0.377975 2.412563e-02 5.066100e-14 1 
    0.378250 3.232974e-02 6.779000e-14 1 
    0.378525 4.459054e-02 9.336300e-14 1 
    0.378800 6.700957e-02 1.401000e-13 1 
    0.379075 8.810594e-02 1.839400e-13 1 
    0.379350 9.396610e-02 1.958900e-13 1 
    0.379625 7.885019e-02 1.641400e-13 1 
    0.379900 5.403010e-02 1.123100e-13 1 
    0.380175 3.449522e-02 7.160000e-14 1 
    0.380450 2.725447e-02 5.648900e-14 1 
    0.380725 2.460697e-02 5.092800e-14 1 
    0.381000 2.245544e-02 4.640800e-14 1 
    0.381275 2.207065e-02 4.554700e-14 1 
    0.381550 2.186132e-02 4.505000e-14 1 
    0.381825 2.159203e-02 4.443100e-14 1 
    0.382100 2.437964e-02 5.009500e-14 1 
    0.382375 3.113750e-02 6.388900e-14 1 
    0.382650 3.534506e-02 7.241800e-14 1 
    0.382925 3.865648e-02 7.908900e-14 1 
    0.383200 3.785887e-02 7.734600e-14 1 
    0.383475 3.270264e-02 6.671600e-14 1 
    0.383750 2.605985e-02 5.308800e-14 1 
    0.384025 2.392392e-02 4.866700e-14 1 
    0.384300 2.577228e-02 5.235200e-14 1 
    0.384575 2.757113e-02 5.592600e-14 1 
    0.384850 2.691792e-02 5.452300e-14 1 
    0.385125 2.795015e-02 5.653300e-14 1 
    0.385400 2.691074e-02 5.435300e-14 1 
    0.385675 2.518504e-02 5.079500e-14 1 
    0.385950 2.458939e-02 4.952300e-14 1 
    0.386225 2.281999e-02 4.589400e-14 1 
    0.386500 2.256170e-02 4.531000e-14 1 
    0.386775 2.440292e-02 4.893800e-14 1 
    0.387050 2.506782e-02 5.020000e-14 1 
    0.387325 2.628612e-02 5.256500e-14 1 
    0.387600 2.745222e-02 5.481900e-14 1 
    0.387875 2.850570e-02 5.684200e-14 1 
    0.388150 2.968111e-02 5.910200e-14 1 
    0.388425 2.749879e-02 5.467900e-14 1 
    0.388700 2.719125e-02 5.399100e-14 1 
    0.388975 2.592249e-02 5.139900e-14 1 
    0.389250 2.609351e-02 5.166500e-14 1 
    0.389525 2.390401e-02 4.726300e-14 1 
    0.389800 2.310917e-02 4.562700e-14 1 
    0.390075 2.144674e-02 4.228500e-14 1 
    0.390350 2.171317e-02 4.275000e-14 1 
    0.390625 2.220205e-02 4.365100e-14 1 
    0.390900 2.400685e-02 4.713300e-14 1 
    0.391175 2.534537e-02 4.969100e-14 1 
    0.391450 2.702879e-02 5.291700e-14 1 
    0.391725 3.019815e-02 5.903900e-14 1 
    0.392000 3.037118e-02 5.929400e-14 1 
    0.392275 3.081954e-02 6.008500e-14 1 
    0.392550 3.230150e-02 6.288600e-14 1 
    0.392825 3.266774e-02 6.351000e-14 1 
    0.393100 3.228030e-02 6.266900e-14 1 
    0.393375 3.402870e-02 6.597100e-14 1 
    0.393650 3.406286e-02 6.594500e-14 1 
    0.393925 3.338269e-02 6.453800e-14 1 
    0.394200 3.231255e-02 6.238200e-14 1 
    0.394475 3.105052e-02 5.986200e-14 1 
    0.394750 2.879122e-02 5.542900e-14 1 
    0.395025 2.817960e-02 5.417600e-14 1 
    0.395300 2.841157e-02 5.454600e-14 1 
    0.395575 2.839948e-02 5.444700e-14 1 
    0.395850 2.720525e-02 5.208500e-14 1 
    0.396125 2.767876e-02 5.291800e-14 1 
    0.396400 2.796652e-02 5.339400e-14 1 
    0.396675 3.048467e-02 5.812100e-14 1 
    0.396950 3.049544e-02 5.806100e-14 1 
    0.397225 3.216397e-02 6.115300e-14 1 
    0.397500 3.353314e-02 6.366800e-14 1 
    0.397775 3.503575e-02 6.642900e-14 1 
    0.398050 3.550462e-02 6.722500e-14 1 
    0.398325 3.559230e-02 6.729800e-14 1 
    0.398600 3.465639e-02 6.543800e-14 1 
    0.398875 3.369765e-02 6.354000e-14 1 
    0.399150 3.369421e-02 6.344600e-14 1 
    0.399425 3.296103e-02 6.198000e-14 1 
    0.399700 3.028892e-02 5.687700e-14 1 
    0.399975 2.820767e-02 5.289600e-14 1 
    0.400250 2.725644e-02 5.104200e-14 1 
    0.400525 2.777249e-02 5.193700e-14 1 
    0.400800 2.925480e-02 5.463400e-14 1 
    0.401075 3.150037e-02 5.874700e-14 1 
    0.401350 3.374825e-02 6.285300e-14 1 
    0.401625 3.318479e-02 6.171900e-14 1 
    0.401900 3.395872e-02 6.307200e-14 1 
    0.402175 3.612407e-02 6.700200e-14 1 
    0.402450 3.561525e-02 6.596800e-14 1 
    0.402725 3.243478e-02 5.999500e-14 1 
    0.403000 3.170711e-02 5.856900e-14 1 
    0.403275 3.010241e-02 5.552900e-14 1 
    0.403550 2.836295e-02 5.224900e-14 1 
    0.403825 2.687633e-02 4.944300e-14 1 
    0.404100 2.599685e-02 4.776000e-14 1 
    0.404375 2.690653e-02 4.936400e-14 1 
    0.404650 2.955427e-02 5.414800e-14 1 
    0.404925 3.104171e-02 5.679600e-14 1 
    0.405200 3.540201e-02 6.468600e-14 1 
    0.405475 3.748164e-02 6.839300e-14 1 
    0.405750 3.889511e-02 7.087600e-14 1 
    0.406025 3.894510e-02 7.087100e-14 1 
    0.406300 3.946395e-02 7.171800e-14 1 
    0.406575 4.000999e-02 7.261200e-14 1 
    0.406850 4.046361e-02 7.333600e-14 1 
    0.407125 4.018627e-02 7.273500e-14 1 
    0.407400 4.168954e-02 7.535400e-14 1 
    0.407675 3.986336e-02 7.195600e-14 1 
    0.407950 4.012408e-02 7.232900e-14 1 
    0.408225 4.117197e-02 7.411800e-14 1 
    0.408500 4.176034e-02 7.507600e-14 1 
    0.408775 4.120946e-02 7.398600e-14 1 
    0.409050 4.188067e-02 7.509000e-14 1 
    0.409325 4.255693e-02 7.620000e-14 1 
    0.409600 4.089390e-02 7.312400e-14 1 
    0.409875 4.244289e-02 7.579200e-14 1 
    0.410150 4.157912e-02 7.415000e-14 1 
    0.410425 4.190554e-02 7.463200e-14 1 
    0.410700 4.262854e-02 7.581800e-14 1 
    0.410975 4.192841e-02 7.447300e-14 1 
    0.411250 4.086323e-02 7.248400e-14 1 
    0.411525 4.147451e-02 7.347000e-14 1 
    0.411800 4.065210e-02 7.191700e-14 1 
    0.412075 4.447610e-02 7.857700e-14 1 
    0.412350 4.346598e-02 7.669000e-14 1 
    0.412625 4.352171e-02 7.668600e-14 1 
    0.412900 4.373204e-02 7.695400e-14 1 
    0.413175 4.437529e-02 7.798200e-14 1 
    0.413450 4.316429e-02 7.575300e-14 1 
    0.413725 4.597012e-02 8.057000e-14 1 
    0.414000 4.546165e-02 7.957300e-14 1 
    0.414275 4.542309e-02 7.940000e-14 1 
    0.414550 4.335818e-02 7.569000e-14 1 
    0.414825 4.386658e-02 7.647600e-14 1 
    0.415100 4.124364e-02 7.180800e-14 1 
    0.415375 4.239104e-02 7.370800e-14 1 
    0.415650 4.136395e-02 7.182700e-14 1 
    0.415925 4.188637e-02 7.263800e-14 1 
    0.416200 3.953687e-02 6.847300e-14 1 
    0.416475 3.872303e-02 6.697500e-14 1 
    0.416750 3.728864e-02 6.440900e-14 1 
    0.417025 3.739294e-02 6.450400e-14 1 
    0.417300 3.616641e-02 6.230600e-14 1 
    0.417575 3.678253e-02 6.328400e-14 1 
    0.417850 3.758410e-02 6.457800e-14 1 
    0.418125 3.625769e-02 6.221700e-14 1 
    0.418400 3.668002e-02 6.285900e-14 1 
    0.418675 4.024805e-02 6.888300e-14 1 
    0.418950 3.957020e-02 6.763400e-14 1 
    0.419225 4.145288e-02 7.075900e-14 1 
    0.419500 4.045317e-02 6.896200e-14 1 
    0.419775 4.216554e-02 7.178700e-14 1 
    0.420050 4.489743e-02 7.633800e-14 1 
    0.420325 4.215656e-02 7.158400e-14 1 
    0.420600 4.215100e-02 7.148100e-14 1 
    0.420875 4.153007e-02 7.033600e-14 1 
    0.421150 4.401193e-02 7.444200e-14 1 
    0.421425 4.186720e-02 7.072200e-14 1 
    0.421700 4.092956e-02 6.904800e-14 1 
    0.421975 4.233267e-02 7.132200e-14 1 
    0.422250 4.019722e-02 6.763600e-14 1 
    0.422525 3.976817e-02 6.682700e-14 1 
    0.422800 4.192693e-02 7.036300e-14 1 
    0.423075 4.076971e-02 6.833200e-14 1 
    0.423350 4.124391e-02 6.903700e-14 1 
    0.423625 4.141236e-02 6.922900e-14 1 
    0.423900 4.236160e-02 7.072400e-14 1 
    0.424175 4.021191e-02 6.704800e-14 1 
    0.424450 4.016078e-02 6.687600e-14 1 
    0.424725 4.034332e-02 6.709300e-14 1 
    0.425000 4.206816e-02 6.987100e-14 1 
    0.425275 4.160476e-02 6.901200e-14 1 
    0.425550 4.125837e-02 6.834900e-14 1 
    0.425825 4.292069e-02 7.101100e-14 1 
    0.426100 4.159870e-02 6.873500e-14 1 
    0.426375 4.205358e-02 6.939700e-14 1 
    0.426650 4.015951e-02 6.618600e-14 1 
    0.426925 4.041118e-02 6.651500e-14 1 
    0.427200 4.086475e-02 6.717500e-14 1 
    0.427475 4.249683e-02 6.976800e-14 1 
    0.427750 4.146590e-02 6.798800e-14 1 
    0.428025 4.364686e-02 7.147200e-14 1 
    0.428300 4.311228e-02 7.050600e-14 1 
    0.428575 4.280275e-02 6.991000e-14 1 
    0.428850 4.396056e-02 7.170900e-14 1 
    0.429125 4.357930e-02 7.099600e-14 1 
    0.429400 4.320556e-02 7.029700e-14 1 
    0.429675 4.170272e-02 6.776500e-14 1 
    0.429950 4.150964e-02 6.736500e-14 1 
    0.430225 4.243270e-02 6.877500e-14 1 
    0.430500 4.234673e-02 6.854800e-14 1 
    0.430775 4.313074e-02 6.972800e-14 1 
    0.431050 4.384915e-02 7.079900e-14 1 
    0.431325 4.489795e-02 7.240000e-14 1 
    0.431600 4.428276e-02 7.131700e-14 1 
    0.431875 4.503367e-02 7.243400e-14 1 
    0.432150 4.523858e-02 7.267100e-14 1 
    0.432425 4.507178e-02 7.231100e-14 1 
    0.432700 4.371492e-02 7.004500e-14 1 
    0.432975 4.394985e-02 7.033200e-14 1 
    0.433250 4.464014e-02 7.134600e-14 1 
    0.433525 4.472690e-02 7.139400e-14 1 
    0.433800 4.579420e-02 7.300500e-14 1 
    0.434075 4.546727e-02 7.239200e-14 1 
    0.434350 4.546264e-02 7.229300e-14 1 
    0.434625 4.575509e-02 7.266600e-14 1 
    0.434900 4.481625e-02 7.108500e-14 1 
    0.435175 4.467789e-02 7.077600e-14 1 
    0.435450 4.456751e-02 7.051200e-14 1 
    0.435725 4.499657e-02 7.110100e-14 1 
    0.436000 4.620537e-02 7.291900e-14 1 
    0.436275 4.470799e-02 7.046700e-14 1 
    0.436550 4.376957e-02 6.890100e-14 1 
    0.436825 4.277079e-02 6.724400e-14 1 
    0.437100 4.169679e-02 6.547300e-14 1 
    0.437375 4.097834e-02 6.426400e-14 1 
    0.437650 3.966742e-02 6.213000e-14 1 
    0.437925 3.953957e-02 6.185200e-14 1 
    0.438200 4.061399e-02 6.345300e-14 1 
    0.438475 4.161731e-02 6.493900e-14 1 
    0.438750 4.224447e-02 6.583500e-14 1 
    0.439025 4.451334e-02 6.928400e-14 1 
    0.439300 4.579458e-02 7.118900e-14 1 
    0.439575 4.579911e-02 7.110700e-14 1 
    0.439850 4.664514e-02 7.233000e-14 1 
    0.440125 4.598934e-02 7.122400e-14 1 
    0.440400 4.579792e-02 7.083900e-14 1 
    0.440675 4.637558e-02 7.164300e-14 1 
    0.440950 4.730714e-02 7.299100e-14 1 
    0.441225 4.913256e-02 7.571300e-14 1 
    0.441500 4.965710e-02 7.642600e-14 1 
    0.441775 4.943013e-02 7.598200e-14 1 
    0.442050 4.688299e-02 7.197700e-14 1 
    0.442325 4.537156e-02 6.957000e-14 1 
    0.442600 4.641661e-02 7.108400e-14 1 
    0.442875 4.616114e-02 7.060500e-14 1 
    0.443150 4.715719e-02 7.203900e-14 1 
    0.443425 4.782265e-02 7.296500e-14 1 
    0.443700 4.865175e-02 7.413800e-14 1 
    0.443975 4.939343e-02 7.517500e-14 1 
    0.444250 4.945727e-02 7.517900e-14 1 
    0.444525 4.986103e-02 7.569900e-14 1 
    0.444800 5.026502e-02 7.621800e-14 1 
    0.445075 4.900130e-02 7.421000e-14 1 
    0.445350 4.836108e-02 7.315000e-14 1 
    0.445625 4.922773e-02 7.436900e-14 1 
    0.445900 4.944292e-02 7.460200e-14 1 
    0.446175 4.819204e-02 7.262500e-14 1 
    0.446450 4.703165e-02 7.078900e-14 1 
    0.446725 4.800028e-02 7.215800e-14 1 
    0.447000 4.806139e-02 7.216100e-14 1 
    0.447275 4.854933e-02 7.280400e-14 1 
    0.447550 4.936418e-02 7.393500e-14 1 
    0.447825 4.977047e-02 7.445200e-14 1 
    0.448100 4.918440e-02 7.348500e-14 1 
    0.448375 4.991358e-02 7.448300e-14 1 
    0.448650 5.107854e-02 7.612800e-14 1 
    0.448925 5.086710e-02 7.572000e-14 1 
    0.449200 5.177287e-02 7.697400e-14 1 
    0.449475 5.156692e-02 7.657400e-14 1 
    0.449750 5.123762e-02 7.599200e-14 1 
    0.450025 5.175665e-02 7.666800e-14 1 
    0.450300 5.224980e-02 7.730400e-14 1 
    0.450575 5.232108e-02 7.731500e-14 1 
    0.450850 5.222506e-02 7.707900e-14 1 
    0.451125 5.186209e-02 7.645000e-14 1 
    0.451400 5.123663e-02 7.543600e-14 1 
    0.451675 5.192471e-02 7.635600e-14 1 
    0.451950 5.245162e-02 7.703700e-14 1 
    0.452225 5.338190e-02 7.830800e-14 1 
    0.452500 5.437917e-02 7.967400e-14 1 
    0.452775 5.320568e-02 7.786000e-14 1 
    0.453050 5.369795e-02 7.848500e-14 1 
    0.453325 5.312609e-02 7.755500e-14 1 
    0.453600 5.051578e-02 7.365500e-14 1 
    0.453875 5.117377e-02 7.452400e-14 1 
    0.454150 5.223200e-02 7.597300e-14 1 
    0.454425 5.140043e-02 7.467300e-14 1 
    0.454700 5.251779e-02 7.620400e-14 1 
    0.454975 5.511642e-02 7.987800e-14 1 
    0.455250 5.589947e-02 8.091500e-14 1 
    0.455525 5.525875e-02 7.989100e-14 1 
    0.455800 5.476801e-02 7.908600e-14 1 
    0.456075 5.466841e-02 7.884700e-14 1 
    0.456350 5.577286e-02 8.034300e-14 1 
    0.456625 5.600273e-02 8.057700e-14 1 
    0.456900 5.620312e-02 8.076800e-14 1 
    0.457175 5.640943e-02 8.096700e-14 1 
    0.457450 5.659659e-02 8.113800e-14 1 
    0.457725 5.561501e-02 7.963500e-14 1 
    0.458000 5.534134e-02 7.914800e-14 1 
    0.458275 5.621637e-02 8.030300e-14 1 
    0.458550 5.830454e-02 8.318600e-14 1 
    0.458825 5.738575e-02 8.177700e-14 1 
    0.459100 5.542693e-02 7.889100e-14 1 
    0.459375 5.551797e-02 7.892600e-14 1 
    0.459650 5.703030e-02 8.097900e-14 1 
    0.459925 5.549163e-02 7.870000e-14 1 
    0.460200 5.557566e-02 7.872500e-14 1 
    0.460475 5.458475e-02 7.722900e-14 1 
    0.460750 5.281153e-02 7.463100e-14 1 
    0.461025 5.514172e-02 7.783100e-14 1 
    0.461300 5.331362e-02 7.516100e-14 1 
    0.461575 5.461220e-02 7.690000e-14 1 
    0.461850 5.514727e-02 7.756100e-14 1 
    0.462125 5.530195e-02 7.768600e-14 1 
    0.462400 5.629217e-02 7.898300e-14 1 
    0.462675 5.534233e-02 7.755800e-14 1 
    0.462950 5.452370e-02 7.632000e-14 1 
    0.463225 5.630440e-02 7.871900e-14 1 
    0.463500 5.707377e-02 7.970000e-14 1 
    0.463775 5.769644e-02 8.047400e-14 1 
    0.464050 5.878632e-02 8.189700e-14 1 
    0.464325 5.786858e-02 8.052300e-14 1 
    0.464600 5.908477e-02 8.211800e-14 1 
    0.464875 5.965322e-02 8.281000e-14 1 
    0.465150 6.021497e-02 8.349100e-14 1 
    0.465425 5.972297e-02 8.271100e-14 1 
    0.465700 5.871497e-02 8.121900e-14 1 
    0.465975 5.852595e-02 8.086200e-14 1 
    0.466250 5.673347e-02 7.829300e-14 1 
    0.466525 5.749688e-02 7.925300e-14 1 
    0.466800 5.735623e-02 7.896600e-14 1 
    0.467075 5.741655e-02 7.895600e-14 1 
    0.467350 5.750457e-02 7.898400e-14 1 
    0.467625 5.803439e-02 7.961800e-14 1 
    0.467900 5.928271e-02 8.123500e-14 1 
    0.468175 5.905943e-02 8.083400e-14 1 
    0.468450 5.954212e-02 8.139900e-14 1 
    0.468725 5.877059e-02 8.025000e-14 1 
    0.469000 6.040496e-02 8.238500e-14 1 
    0.469275 6.023651e-02 8.205900e-14 1 
    0.469550 5.994041e-02 8.156000e-14 1 
    0.469825 6.095244e-02 8.284000e-14 1 
    0.470100 6.068717e-02 8.238300e-14 1 
    0.470375 6.053620e-02 8.208200e-14 1 
    0.470650 5.975271e-02 8.092500e-14 1 
    0.470925 6.141117e-02 8.307400e-14 1 
    0.471200 6.068064e-02 8.199000e-14 1 
    0.471475 6.048845e-02 8.163500e-14 1 
    0.471750 5.946261e-02 8.015700e-14 1 
    0.472025 5.916136e-02 7.965800e-14 1 
    0.472300 5.793504e-02 7.791600e-14 1 
    0.472575 5.954571e-02 7.998900e-14 1 
    0.472850 6.139851e-02 8.238200e-14 1 
    0.473125 5.959113e-02 7.986400e-14 1 
    0.473400 5.898362e-02 7.895800e-14 1 
    0.473675 6.100641e-02 8.157100e-14 1 
    0.473950 6.106379e-02 8.155300e-14 1 
    0.474225 6.153272e-02 8.208400e-14 1 
    0.474500 5.876197e-02 7.829700e-14 1 
    0.474775 5.858139e-02 7.796600e-14 1 
    0.475050 5.774959e-02 7.677000e-14 1 
    0.475325 5.888665e-02 7.819100e-14 1 
    0.475600 5.874595e-02 7.791400e-14 1 
    0.475875 5.972276e-02 7.911800e-14 1 
    0.476150 6.076896e-02 8.041100e-14 1 
    0.476425 6.145656e-02 8.122700e-14 1 
    0.476700 6.190475e-02 8.172500e-14 1 
    0.476975 6.299921e-02 8.307400e-14 1 
    0.477250 5.989983e-02 7.889600e-14 1 
    0.477525 6.012698e-02 7.910400e-14 1 
    0.477800 6.086515e-02 7.998300e-14 1 
    0.478075 6.027395e-02 7.911500e-14 1 
    0.478350 5.870726e-02 7.697000e-14 1 
    0.478625 5.841741e-02 7.650200e-14 1 
    0.478900 5.871849e-02 7.680800e-14 1 
    0.479175 6.204256e-02 8.106300e-14 1 
    0.479450 5.920208e-02 7.726300e-14 1 
    0.479725 6.129444e-02 7.990200e-14 1 
    0.480000 6.076416e-02 7.912000e-14 1 
    0.480275 6.048166e-02 7.866200e-14 1 
    0.480550 6.310192e-02 8.197600e-14 1 
    0.480825 6.162903e-02 7.997100e-14 1 
    0.481100 6.066879e-02 7.863500e-14 1 
    0.481375 6.178787e-02 7.999400e-14 1 
    0.481650 6.081068e-02 7.863900e-14 1 
    0.481925 6.106362e-02 7.887600e-14 1 
    0.482200 6.138987e-02 7.920700e-14 1 
    0.482475 6.190608e-02 7.978200e-14 1 
    0.482750 6.274417e-02 8.077000e-14 1 
    0.483025 6.346584e-02 8.160600e-14 1 
    0.483300 6.362689e-02 8.172000e-14 1 
    0.483575 6.468692e-02 8.298700e-14 1 
    0.483850 6.201128e-02 7.946400e-14 1 
    0.484125 6.115678e-02 7.828000e-14 1 
    0.484400 6.283592e-02 8.033800e-14 1 
    0.484675 6.049007e-02 7.725100e-14 1 
    0.484950 6.084486e-02 7.761600e-14 1 
    0.485225 6.276918e-02 7.998000e-14 1 
    0.485500 6.196273e-02 7.886300e-14 1 
    0.485775 6.184966e-02 7.863000e-14 1 
    0.486050 6.326158e-02 8.033400e-14 1 
    0.486325 6.172096e-02 7.828900e-14 1 
    0.486600 6.382709e-02 8.086900e-14 1 
    0.486875 6.061773e-02 7.671600e-14 1 
    0.487150 6.146066e-02 7.769500e-14 1 
    0.487425 6.297457e-02 7.951900e-14 1 
    0.487700 6.327954e-02 7.981400e-14 1 
    0.487975 6.384780e-02 8.044000e-14 1 
    0.488250 6.400958e-02 8.055300e-14 1 
    0.488525 6.293138e-02 7.910700e-14 1 
    0.488800 6.390858e-02 8.024500e-14 1 
    0.489075 6.434248e-02 8.069900e-14 1 
    0.489350 6.496961e-02 8.139400e-14 1 
    0.489625 6.303690e-02 7.888400e-14 1 
    0.489900 6.482534e-02 8.103100e-14 1 
    0.490175 6.248662e-02 7.802000e-14 1 
    0.490450 6.408499e-02 7.992600e-14 1 
    0.490725 6.322734e-02 7.876800e-14 1 
    0.491000 6.502356e-02 8.091500e-14 1 
    0.491275 6.458717e-02 8.028200e-14 1 
    0.491550 6.367288e-02 7.905700e-14 1 
    0.491825 6.428275e-02 7.972500e-14 1 
    0.492100 6.397931e-02 7.926000e-14 1 
    0.492375 6.315383e-02 7.815000e-14 1 
    0.492650 6.404150e-02 7.916000e-14 1 
    0.492925 6.397776e-02 7.899300e-14 1 
    0.493200 6.408971e-02 7.904300e-14 1 
    0.493475 6.227151e-02 7.671500e-14 1 
    0.493750 6.684940e-02 8.226300e-14 1 
    0.494025 7.237376e-02 8.896200e-14 1 
    0.494300 8.153375e-02 1.001100e-13 1 
    0.494575 8.477990e-02 1.039800e-13 1 
    0.494850 8.141165e-02 9.973800e-14 1 
    0.495125 7.342777e-02 8.985700e-14 1 
    0.495400 6.603874e-02 8.072500e-14 1 
    0.495675 6.074859e-02 7.417600e-14 1 
    0.495950 6.032818e-02 7.358100e-14 1 
    0.496225 6.271140e-02 7.640300e-14 1 
    0.496500 6.244402e-02 7.599300e-14 1 
    0.496775 6.188062e-02 7.522400e-14 1 
    0.497050 6.369008e-02 7.733800e-14 1 
    0.497325 6.166568e-02 7.479700e-14 1 
    0.497600 6.323769e-02 7.661900e-14 1 
    0.497875 6.441397e-02 7.795800e-14 1 
    0.498150 6.518246e-02 7.880100e-14 1 
    0.498425 6.609827e-02 7.982000e-14 1 
    0.498700 6.576004e-02 7.932400e-14 1 
    0.498975 6.871407e-02 8.279600e-14 1 
    0.499250 7.086194e-02 8.529000e-14 1 
    0.499525 7.449908e-02 8.956900e-14 1 
    0.499800 7.206231e-02 8.654400e-14 1 
    0.500075 6.710429e-02 8.050100e-14 1 
    0.500350 6.425235e-02 7.699500e-14 1 
    0.500625 6.263212e-02 7.497100e-14 1 
    0.500900 6.428163e-02 7.686100e-14 1 
    0.501175 6.506389e-02 7.771100e-14 1 
    0.501450 6.557452e-02 7.823500e-14 1 
    0.501725 6.646458e-02 7.921000e-14 1 
    0.502000 6.720023e-02 7.999900e-14 1 
    0.502275 6.724781e-02 7.996800e-14 1 
    0.502550 6.849165e-02 8.135800e-14 1 
    0.502825 6.838458e-02 8.114200e-14 1 
    0.503100 7.146972e-02 8.471000e-14 1 
    0.503375 7.289589e-02 8.630600e-14 1 
    0.503650 7.498796e-02 8.868600e-14 1 
    0.503925 7.640558e-02 9.026400e-14 1 
    0.504200 7.806516e-02 9.212400e-14 1 
    0.504475 7.900883e-02 9.313600e-14 1 
    0.504750 7.701435e-02 9.068600e-14 1 
    0.505025 7.557904e-02 8.889900e-14 1 
    0.505300 7.360598e-02 8.648400e-14 1 
    0.505575 6.959813e-02 8.168600e-14 1 
    0.505850 6.821617e-02 7.997700e-14 1 
    0.506125 6.951226e-02 8.140800e-14 1 
    0.506400 6.920487e-02 8.096000e-14 1 
    0.506675 6.902162e-02 8.065800e-14 1 
    0.506950 7.236301e-02 8.447100e-14 1 
    0.507225 7.474332e-02 8.715500e-14 1 
    0.507500 7.609414e-02 8.863400e-14 1 
    0.507775 7.848769e-02 9.132300e-14 1 
    0.508050 8.326698e-02 9.677900e-14 1 
    0.508325 8.674297e-02 1.007100e-13 1 
    0.508600 9.068247e-02 1.051700e-13 1 
    0.508875 1.009747e-01 1.169800e-13 1 
    0.509150 1.101311e-01 1.274500e-13 1 
    0.509425 1.131048e-01 1.307500e-13 1 
    0.509700 1.072863e-01 1.238900e-13 1 
    0.509975 9.420765e-02 1.086700e-13 1 
    0.510250 8.190163e-02 9.437300e-14 1 
    0.510525 7.405791e-02 8.524300e-14 1 
    0.510800 6.891243e-02 7.923500e-14 1 
    0.511075 6.825269e-02 7.839200e-14 1 
    0.511350 6.503849e-02 7.462000e-14 1 
    0.511625 6.678199e-02 7.653800e-14 1 
    0.511900 6.705033e-02 7.676300e-14 1 
    0.512175 6.747565e-02 7.716700e-14 1 
    0.512450 6.595150e-02 7.534300e-14 1 
    0.512725 6.547549e-02 7.471900e-14 1 
    0.513000 6.458606e-02 7.362500e-14 1 
    0.513275 6.408627e-02 7.297700e-14 1 
    0.513550 6.645823e-02 7.559700e-14 1 
    0.513825 7.059088e-02 8.021200e-14 1 
    0.514100 7.734000e-02 8.778700e-14 1 
    0.514375 8.671223e-02 9.832000e-14 1 
    0.514650 8.486527e-02 9.612300e-14 1 
    0.514925 7.611243e-02 8.611700e-14 1 
    0.515200 6.957390e-02 7.863500e-14 1 
    0.515475 6.744719e-02 7.615000e-14 1 
    0.515750 6.559601e-02 7.398100e-14 1 
    0.516025 6.519821e-02 7.345400e-14 1 
    0.516300 6.376784e-02 7.176600e-14 1 
    0.516575 6.386159e-02 7.179500e-14 1 
    0.516850 6.490820e-02 7.289400e-14 1 
    0.517125 6.258746e-02 7.021300e-14 1 
    0.517400 6.270759e-02 7.027300e-14 1 
    0.517675 6.488153e-02 7.263200e-14 1 
    0.517950 6.406698e-02 7.164400e-14 1 
    0.518225 6.531399e-02 7.296100e-14 1 
    0.518500 6.471212e-02 7.221200e-14 1 
    0.518775 6.375182e-02 7.106500e-14 1 
    0.519050 6.338207e-02 7.057800e-14 1 
    0.519325 6.356343e-02 7.070500e-14 1 
    0.519600 6.345797e-02 7.051300e-14 1 
    0.519875 6.423958e-02 7.130600e-14 1 
    0.520150 6.539069e-02 7.250700e-14 1 
    0.520425 6.625432e-02 7.338700e-14 1 
    0.520700 6.590049e-02 7.291800e-14 1 
    0.520975 6.475418e-02 7.157400e-14 1 
    0.521250 6.466044e-02 7.139500e-14 1 
    0.521525 6.370692e-02 7.026800e-14 1 
    0.521800 6.335936e-02 6.981100e-14 1 
    0.522075 6.271023e-02 6.902300e-14 1 
    0.522350 6.443705e-02 7.084900e-14 1 
    0.522625 6.514133e-02 7.154800e-14 1 
    0.522900 6.343811e-02 6.960400e-14 1 
    0.523175 6.300761e-02 6.905900e-14 1 
    0.523450 6.396984e-02 7.004000e-14 1 
    0.523725 6.434611e-02 7.037800e-14 1 
    0.524000 6.379133e-02 6.969800e-14 1 
    0.524275 6.339378e-02 6.919100e-14 1 
    0.524550 6.389596e-02 6.966600e-14 1 
    0.524825 6.498853e-02 7.078300e-14 1 
    0.525100 6.393168e-02 6.955900e-14 1 
    0.525375 6.195704e-02 6.734000e-14 1 
    0.525650 6.005737e-02 6.520700e-14 1 
    0.525925 5.983994e-02 6.490300e-14 1 
    0.526200 5.776128e-02 6.258300e-14 1 
    0.526475 5.738558e-02 6.211100e-14 1 
    0.526750 5.742889e-02 6.209300e-14 1 
    0.527025 5.785459e-02 6.248800e-14 1 
    0.527300 6.073436e-02 6.553000e-14 1 
    0.527575 6.153810e-02 6.632800e-14 1 
    0.527850 6.270191e-02 6.751200e-14 1 
    0.528125 6.371743e-02 6.853400e-14 1 
    0.528400 6.971974e-02 7.491200e-14 1 
    0.528675 7.304475e-02 7.840300e-14 1 
    0.528950 7.675333e-02 8.229800e-14 1 
    0.529225 7.565870e-02 8.104000e-14 1 
    0.529500 7.254580e-02 7.762500e-14 1 
    0.529775 6.792478e-02 7.260500e-14 1 
    0.530050 6.513989e-02 6.955600e-14 1 
    0.530325 6.625279e-02 7.067100e-14 1 
    0.530600 6.683673e-02 7.122000e-14 1 
    0.530875 6.905732e-02 7.351000e-14 1 
    0.531150 6.919471e-02 7.358000e-14 1 
    0.531425 6.779783e-02 7.202000e-14 1 
    0.531700 6.687290e-02 7.096400e-14 1 
    0.531975 6.810898e-02 7.220100e-14 1 
    0.532250 6.844477e-02 7.248200e-14 1 
    0.532525 6.993059e-02 7.397900e-14 1 
    0.532800 7.055261e-02 7.456000e-14 1 
    0.533075 7.249434e-02 7.653300e-14 1 
    0.533350 7.120848e-02 7.509800e-14 1 
    0.533625 7.032800e-02 7.409300e-14 1 
    0.533900 7.086989e-02 7.458700e-14 1 
    0.534175 6.975969e-02 7.334300e-14 1 
    0.534450 6.999911e-02 7.351900e-14 1 
    0.534725 7.140455e-02 7.491800e-14 1 
    0.535000 7.009936e-02 7.347300e-14 1 
    0.535275 7.002628e-02 7.332100e-14 1 
    0.535550 6.782860e-02 7.094700e-14 1 
    0.535825 6.601006e-02 6.897400e-14 1 
    0.536100 6.676472e-02 6.969100e-14 1 
    0.536375 6.823529e-02 7.115300e-14 1 
    0.536650 6.903966e-02 7.191800e-14 1 
    0.536925 7.058743e-02 7.345500e-14 1 
    0.537200 7.107435e-02 7.388600e-14 1 
    0.537475 7.338499e-02 7.621000e-14 1 
    0.537750 7.271499e-02 7.543700e-14 1 
    0.538025 7.299395e-02 7.564900e-14 1 
    0.538300 7.450969e-02 7.714100e-14 1 
    0.538575 7.270140e-02 7.519200e-14 1 
    0.538850 7.215720e-02 7.455300e-14 1 
    0.539125 7.279959e-02 7.514000e-14 1 
    0.539400 7.374867e-02 7.604200e-14 1 
    0.539675 7.287344e-02 7.506300e-14 1 
    0.539950 7.431411e-02 7.646900e-14 1 
    0.540225 7.566615e-02 7.778100e-14 1 
    0.540500 7.665662e-02 7.871900e-14 1 
    0.540775 7.510968e-02 7.705200e-14 1 
    0.541050 7.337601e-02 7.519700e-14 1 
    0.541325 7.214271e-02 7.385800e-14 1 
    0.541600 7.311167e-02 7.477400e-14 1 
    0.541875 7.153182e-02 7.308400e-14 1 
    0.542150 7.201888e-02 7.350700e-14 1 
    0.542425 7.197329e-02 7.338600e-14 1 
    0.542700 7.253323e-02 7.388200e-14 1 
    0.542975 7.357279e-02 7.486500e-14 1 
    0.543250 7.349584e-02 7.471100e-14 1 
    0.543525 7.366284e-02 7.480500e-14 1 
    0.543800 7.247271e-02 7.352200e-14 1 
    0.544075 7.540950e-02 7.642400e-14 1 
    0.544350 7.422937e-02 7.515200e-14 1 
    0.544625 7.565201e-02 7.651500e-14 1 
    0.544900 7.756337e-02 7.836900e-14 1 
    0.545175 7.760898e-02 7.833600e-14 1 
    0.545450 7.666087e-02 7.730100e-14 1 
    0.545725 7.735268e-02 7.792000e-14 1 
    0.546000 7.585859e-02 7.633800e-14 1 
    0.546275 7.254601e-02 7.293100e-14 1 
    0.546550 7.306516e-02 7.337900e-14 1 
    0.546825 7.338988e-02 7.363100e-14 1 
    0.547100 7.534343e-02 7.551500e-14 1 
    0.547375 7.566088e-02 7.575700e-14 1 
    0.547650 7.533703e-02 7.535700e-14 1 
    0.547925 7.366642e-02 7.361200e-14 1 
    0.548200 7.486435e-02 7.473400e-14 1 
    0.548475 7.231929e-02 7.212100e-14 1 
    0.548750 7.314966e-02 7.287600e-14 1 
    0.549025 7.416949e-02 7.381800e-14 1 
    0.549300 7.469439e-02 7.426600e-14 1 
    0.549575 7.308789e-02 7.259600e-14 1 
    0.549850 7.217543e-02 7.161800e-14 1 
    0.550125 7.298406e-02 7.234800e-14 1 
    0.550400 7.263798e-02 7.193300e-14 1 
    0.550675 7.307751e-02 7.229600e-14 1 
    0.550950 7.516707e-02 7.428900e-14 1 
    0.551225 7.433159e-02 7.339000e-14 1 
    0.551500 7.614148e-02 7.510200e-14 1 
    0.551775 7.532030e-02 7.421800e-14 1 
    0.552050 7.475845e-02 7.359100e-14 1 
    0.552325 7.365337e-02 7.243100e-14 1 
    0.552600 7.305187e-02 7.176800e-14 1 
    0.552875 7.426475e-02 7.288700e-14 1 
    0.553150 7.488124e-02 7.341900e-14 1 
    0.553425 7.789804e-02 7.630100e-14 1 
    0.553700 7.577114e-02 7.414400e-14 1 
    0.553975 7.591803e-02 7.421400e-14 1 
    0.554250 7.568008e-02 7.390800e-14 1 
    0.554525 7.576340e-02 7.391600e-14 1 
    0.554800 7.483616e-02 7.293900e-14 1 
    0.555075 7.547420e-02 7.348800e-14 1 
    0.555350 7.558806e-02 7.352600e-14 1 
    0.555625 7.494981e-02 7.283300e-14 1 
    0.555900 7.610869e-02 7.388600e-14 1 
    0.556175 7.514466e-02 7.287800e-14 1 
    0.556450 7.595179e-02 7.358800e-14 1 
    0.556725 7.435320e-02 7.196800e-14 1 
    0.557000 7.496443e-02 7.248800e-14 1 
    0.557275 7.564198e-02 7.307100e-14 1 
    0.557550 7.523067e-02 7.260200e-14 1 
    0.557825 7.516073e-02 7.246300e-14 1 
    0.558100 7.610076e-02 7.329700e-14 1 
    0.558375 7.582138e-02 7.295600e-14 1 
    0.558650 7.723703e-02 7.424500e-14 1 
    0.558925 7.767860e-02 7.459600e-14 1 
    0.559200 7.555882e-02 7.248900e-14 1 
    0.559475 7.907316e-02 7.578600e-14 1 
    0.559750 7.687412e-02 7.360600e-14 1 
    0.560025 7.555926e-02 7.227600e-14 1 
    0.560300 7.530385e-02 7.196100e-14 1 
    0.560575 7.545530e-02 7.203500e-14 1 
    0.560850 7.624549e-02 7.271800e-14 1 
    0.561125 7.731103e-02 7.366200e-14 1 
    0.561400 7.715045e-02 7.343700e-14 1 
    0.561675 7.794850e-02 7.412400e-14 1 
    0.561950 7.868485e-02 7.475100e-14 1 
    0.562225 7.847634e-02 7.448000e-14 1 
    0.562500 7.592379e-02 7.198700e-14 1 
    0.562775 7.659558e-02 7.255300e-14 1 
    0.563050 7.813089e-02 7.393500e-14 1 
    0.563325 7.764871e-02 7.340700e-14 1 
    0.563600 8.004547e-02 7.559900e-14 1 
    0.563875 7.771880e-02 7.333000e-14 1 
    0.564150 8.038955e-02 7.577600e-14 1 
    0.564425 7.874127e-02 7.415000e-14 1 
    0.564700 7.943452e-02 7.473000e-14 1 
    0.564975 7.915654e-02 7.439600e-14 1 
    0.565250 7.793109e-02 7.317300e-14 1 
    0.565525 7.931180e-02 7.439700e-14 1 
    0.565800 7.923955e-02 7.425700e-14 1 
    0.566075 7.737686e-02 7.244100e-14 1 
    0.566350 8.033670e-02 7.513900e-14 1 
    0.566625 7.894211e-02 7.376300e-14 1 
    0.566900 7.809749e-02 7.290300e-14 1 
    0.567175 7.789341e-02 7.264200e-14 1 
    0.567450 7.864837e-02 7.327500e-14 1 
    0.567725 7.864298e-02 7.319900e-14 1 
    0.568000 7.692324e-02 7.152900e-14 1 
    0.568275 7.771897e-02 7.219900e-14 1 
    0.568550 7.739338e-02 7.182700e-14 1 
    0.568825 7.632393e-02 7.076600e-14 1 
    0.569100 7.537863e-02 6.982200e-14 1 
    0.569375 7.774566e-02 7.194500e-14 1 
    0.569650 7.722262e-02 7.139200e-14 1 
    0.569925 7.742062e-02 7.150600e-14 1 
    0.570200 7.798088e-02 7.195400e-14 1 
    0.570475 7.760158e-02 7.153500e-14 1 
    0.570750 7.761778e-02 7.148100e-14 1 
    0.571025 7.855016e-02 7.227000e-14 1 
    0.571300 7.936128e-02 7.294600e-14 1 
    0.571575 7.994518e-02 7.341200e-14 1 
    0.571850 7.846227e-02 7.198100e-14 1 
    0.572125 7.839046e-02 7.184600e-14 1 
    0.572400 7.809997e-02 7.151100e-14 1 
    0.572675 7.807446e-02 7.141900e-14 1 
    0.572950 7.976346e-02 7.289400e-14 1 
    0.573225 8.058484e-02 7.357400e-14 1 
    0.573500 7.746964e-02 7.066200e-14 1 
    0.573775 7.927673e-02 7.224100e-14 1 
    0.574050 7.965701e-02 7.251800e-14 1 
    0.574325 7.942329e-02 7.223600e-14 1 
    0.574600 7.774729e-02 7.064400e-14 1 
    0.574875 7.849812e-02 7.125800e-14 1 
    0.575150 7.985783e-02 7.242300e-14 1 
    0.575425 7.931282e-02 7.186000e-14 1 
    0.575700 7.961182e-02 7.206200e-14 1 
    0.575975 7.751937e-02 7.010100e-14 1 
    0.576250 7.799520e-02 7.046400e-14 1 
    0.576525 7.759658e-02 7.003700e-14 1 
    0.576800 7.665478e-02 6.912100e-14 1 
    0.577075 7.850842e-02 7.072500e-14 1 
    0.577350 8.182215e-02 7.364000e-14 1 
    0.577625 8.070341e-02 7.256400e-14 1 
    0.577900 7.852377e-02 7.053700e-14 1 
    0.578175 8.075466e-02 7.247200e-14 1 
    0.578450 8.155871e-02 7.312400e-14 1 
    0.578725 8.048414e-02 7.209200e-14 1 
    0.579000 8.093724e-02 7.242900e-14 1 
    0.579275 7.845494e-02 7.014100e-14 1 
    0.579550 7.955051e-02 7.105300e-14 1 
    0.579825 8.157933e-02 7.279600e-14 1 
    0.580100 8.055744e-02 7.181600e-14 1 
    0.580375 7.949085e-02 7.079800e-14 1 
    0.580650 7.921106e-02 7.048200e-14 1 
    0.580925 8.005442e-02 7.116500e-14 1 
    0.581200 7.853585e-02 6.974900e-14 1 
    0.581475 8.154839e-02 7.235600e-14 1 
    0.581750 8.362342e-02 7.412700e-14 1 
    0.582025 8.523142e-02 7.548100e-14 1 
    0.582300 8.393307e-02 7.426100e-14 1 
    0.582575 8.648768e-02 7.644900e-14 1 
    0.582850 8.439178e-02 7.452600e-14 1 
    0.583125 8.237456e-02 7.267600e-14 1 
    0.583400 8.504237e-02 7.495900e-14 1 
    0.583675 8.640806e-02 7.609100e-14 1 
    0.583950 8.534374e-02 7.508300e-14 1 
    0.584225 8.445707e-02 7.423300e-14 1 
    0.584500 8.305503e-02 7.293200e-14 1 
    0.584775 8.258833e-02 7.245400e-14 1 
    0.585050 8.421315e-02 7.381000e-14 1 
    0.585325 8.489418e-02 7.433700e-14 1 
    0.585600 8.543235e-02 7.473800e-14 1 
    0.585875 8.484785e-02 7.415700e-14 1 
    0.586150 8.664767e-02 7.565900e-14 1 
    0.586425 8.479515e-02 7.397200e-14 1 
    0.586700 8.720505e-02 7.600300e-14 1 
    0.586975 8.535281e-02 7.431900e-14 1 
    0.587250 8.657085e-02 7.530900e-14 1 
    0.587525 8.669337e-02 7.534500e-14 1 
    0.587800 8.449534e-02 7.336600e-14 1 
    0.588075 8.394616e-02 7.282100e-14 1 
    0.588350 8.299314e-02 7.192700e-14 1 
    0.588625 8.099187e-02 7.012700e-14 1 
    0.588900 8.382349e-02 7.251100e-14 1 
    0.589175 8.277248e-02 7.153500e-14 1 
    0.589450 8.414807e-02 7.265600e-14 1 
    0.589725 8.651729e-02 7.463200e-14 1 
    0.590000 8.553861e-02 7.371900e-14 1 
    0.590275 8.629548e-02 7.430200e-14 1 
    0.590550 8.720941e-02 7.501900e-14 1 
    0.590825 8.612474e-02 7.401700e-14 1 
    0.591100 8.589863e-02 7.375400e-14 1 
    0.591375 8.722126e-02 7.482000e-14 1 
    0.591650 8.569918e-02 7.344600e-14 1 
    0.591925 8.396859e-02 7.189600e-14 1 
    0.592200 8.555464e-02 7.318600e-14 1 
    0.592475 8.635957e-02 7.380600e-14 1 
    0.592750 8.668102e-02 7.401200e-14 1 
    0.593025 8.765355e-02 7.477300e-14 1 
    0.593300 8.663192e-02 7.383300e-14 1 
    0.593575 8.353540e-02 7.112800e-14 1 
    0.593850 8.425231e-02 7.167200e-14 1 
    0.594125 8.717071e-02 7.408600e-14 1 
    0.594400 8.982471e-02 7.627100e-14 1 
    0.594675 8.929250e-02 7.574900e-14 1 
    0.594950 8.649029e-02 7.330400e-14 1 
    0.595225 8.615456e-02 7.295200e-14 1 
    0.595500 8.671766e-02 7.336100e-14 1 
    0.595775 8.509637e-02 7.192300e-14 1 
    0.596050 8.529101e-02 7.202100e-14 1 
    0.596325 8.412868e-02 7.097400e-14 1 
    0.596600 8.490273e-02 7.156100e-14 1 
    0.596875 8.736084e-02 7.356500e-14 1 
    0.597150 8.671035e-02 7.295000e-14 1 
    0.597425 8.988588e-02 7.555200e-14 1 
    0.597700 8.830389e-02 7.415400e-14 1 
    0.597975 8.887266e-02 7.456300e-14 1 
    0.598250 8.621407e-02 7.226600e-14 1 
    0.598525 8.147991e-02 6.823500e-14 1 
    0.598800 7.833014e-02 6.553700e-14 1 
    0.599075 7.556088e-02 6.316200e-14 1 
    0.599350 7.456578e-02 6.227300e-14 1 
    0.599625 7.440411e-02 6.208100e-14 1 
    0.599900 7.250863e-02 6.044400e-14 1 
    0.600175 7.604514e-02 6.333400e-14 1 
    0.600450 8.017693e-02 6.671400e-14 1 
    0.600725 8.130533e-02 6.759100e-14 1 
    0.601000 8.050207e-02 6.686200e-14 1 
    0.601275 8.199055e-02 6.803600e-14 1 
    0.601550 8.355041e-02 6.926700e-14 1 
    0.601825 8.279619e-02 6.857900e-14 1 
    0.602100 8.359934e-02 6.918100e-14 1 
    0.602375 8.514892e-02 7.039900e-14 1 
    0.602650 8.264562e-02 6.826700e-14 1 
    0.602925 8.382495e-02 6.917800e-14 1 
    0.603200 8.695172e-02 7.169300e-14 1 
    0.603475 8.528659e-02 7.025600e-14 1 
    0.603750 8.536433e-02 7.025600e-14 1 
    0.604025 8.487174e-02 6.978700e-14 1 
    0.604300 8.333130e-02 6.845800e-14 1 
    0.604575 8.378973e-02 6.877200e-14 1 
    0.604850 8.398182e-02 6.886700e-14 1 
    0.605125 8.301948e-02 6.801600e-14 1 
    0.605400 8.367527e-02 6.849100e-14 1 
    0.605675 8.066249e-02 6.596500e-14 1 
    0.605950 8.166348e-02 6.672300e-14 1 
    0.606225 8.261351e-02 6.743800e-14 1 
    0.606500 8.472143e-02 6.909600e-14 1 
    0.606775 8.342498e-02 6.797700e-14 1 
    0.607050 8.705427e-02 7.087000e-14 1 
    0.607325 8.804544e-02 7.161200e-14 1 
    0.607600 8.755542e-02 7.114900e-14 1 
    0.607875 8.776157e-02 7.125200e-14 1 
    0.608150 8.708774e-02 7.064100e-14 1 
    0.608425 8.382255e-02 6.793100e-14 1 
    0.608700 8.698597e-02 7.043100e-14 1 
    0.608975 8.781742e-02 7.104000e-14 1 
    0.609250 8.607422e-02 6.956700e-14 1 
    0.609525 8.533336e-02 6.890600e-14 1 
    0.609800 8.734030e-02 7.046300e-14 1 
    0.610075 8.477654e-02 6.833300e-14 1 
    0.610350 8.707449e-02 7.012200e-14 1 
    0.610625 8.659492e-02 6.967300e-14 1 
    0.610900 8.748900e-02 7.032900e-14 1 
    0.611175 8.852652e-02 7.109900e-14 1 
    0.611450 8.673561e-02 6.959800e-14 1 
    0.611725 8.578581e-02 6.877400e-14 1 
    0.612000 8.563699e-02 6.859300e-14 1 
    0.612275 8.517164e-02 6.815900e-14 1 
    0.612550 8.528569e-02 6.818900e-14 1 
    0.612825 8.729263e-02 6.973100e-14 1 
    0.613100 8.790852e-02 7.016000e-14 1 
    0.613375 8.860943e-02 7.065600e-14 1 
    0.613650 8.605168e-02 6.855500e-14 1 
    0.613925 9.122331e-02 7.261000e-14 1 
    0.614200 8.907178e-02 7.083400e-14 1 
    0.614475 8.924973e-02 7.091200e-14 1 
    0.614750 9.184153e-02 7.290600e-14 1 
    0.615025 9.074230e-02 7.196900e-14 1 
    0.615300 8.931665e-02 7.077500e-14 1 
    0.615575 8.878517e-02 7.029100e-14 1 
    0.615850 8.774060e-02 6.940200e-14 1 
    0.616125 8.793666e-02 6.949500e-14 1 
    0.616400 8.986553e-02 7.095600e-14 1 
    0.616675 8.974291e-02 7.079600e-14 1 
    0.616950 8.719791e-02 6.872700e-14 1 
    0.617225 8.672325e-02 6.829200e-14 1 
    0.617500 8.779322e-02 6.907300e-14 1 
    0.617775 8.738674e-02 6.869200e-14 1 
    0.618050 8.830239e-02 6.935000e-14 1 
    0.618325 8.852626e-02 6.946400e-14 1 
    0.618600 8.721978e-02 6.837800e-14 1 
    0.618875 8.721563e-02 6.831400e-14 1 
    0.619150 8.815569e-02 6.898900e-14 1 
    0.619425 8.631814e-02 6.749100e-14 1 
    0.619700 8.789635e-02 6.866400e-14 1 
    0.619975 8.926202e-02 6.966900e-14 1 
    0.620250 8.947843e-02 6.977600e-14 1 
    0.620525 8.985429e-02 7.000700e-14 1 
    0.620800 8.948432e-02 6.965700e-14 1 
    0.621075 8.904159e-02 6.925100e-14 1 
    0.621350 9.036619e-02 7.021900e-14 1 
    0.621625 9.163121e-02 7.113900e-14 1 
    0.621900 9.173680e-02 7.115800e-14 1 
    0.622175 8.942824e-02 6.930600e-14 1 
    0.622450 8.590796e-02 6.651900e-14 1 
    0.622725 8.784267e-02 6.795700e-14 1 
    0.623000 8.892164e-02 6.873100e-14 1 
    0.623275 8.980301e-02 6.935100e-14 1 
    0.623550 9.143364e-02 7.054800e-14 1 
    0.623825 8.798595e-02 6.782800e-14 1 
    0.624100 8.714302e-02 6.711900e-14 1 
    0.624375 8.730819e-02 6.718700e-14 1 
    0.624650 8.881841e-02 6.828900e-14 1 
    0.624925 8.847876e-02 6.796800e-14 1 
    0.625200 8.887326e-02 6.821100e-14 1 
    0.625475 9.104057e-02 6.981300e-14 1 
    0.625750 9.048240e-02 6.932400e-14 1 
    0.626025 8.920202e-02 6.828300e-14 1 
    0.626300 8.761465e-02 6.700900e-14 1 
    0.626575 8.672451e-02 6.627000e-14 1 
    0.626850 8.377894e-02 6.396300e-14 1 
    0.627125 8.466132e-02 6.458000e-14 1 
    0.627400 8.851574e-02 6.746100e-14 1 
    0.627675 8.585391e-02 6.537500e-14 1 
    0.627950 8.872885e-02 6.750500e-14 1 
    0.628225 8.744892e-02 6.647300e-14 1 
    0.628500 9.176266e-02 6.969100e-14 1 
    0.628775 9.112475e-02 6.914600e-14 1 
    0.629050 9.035767e-02 6.850400e-14 1 
    0.629325 8.946769e-02 6.777000e-14 1 
    0.629600 8.967538e-02 6.786800e-14 1 
    0.629875 8.584318e-02 6.491100e-14 1 
    0.630150 8.910943e-02 6.732200e-14 1 
    0.630425 9.114658e-02 6.880100e-14 1 
    0.630700 9.137992e-02 6.891700e-14 1 
    0.630975 9.335339e-02 7.034400e-14 1 
    0.631250 9.131090e-02 6.874500e-14 1 
    0.631525 9.233835e-02 6.945800e-14 1 
    0.631800 9.362827e-02 7.036700e-14 1 
    0.632075 9.319309e-02 6.997900e-14 1 
    0.632350 9.045514e-02 6.786400e-14 1 
    0.632625 8.937454e-02 6.699500e-14 1 
    0.632900 8.946962e-02 6.700800e-14 1 
    0.633175 8.457609e-02 6.328800e-14 1 
    0.633450 8.322109e-02 6.222000e-14 1 
    0.633725 8.957852e-02 6.691500e-14 1 
    0.634000 8.808464e-02 6.574200e-14 1 
    0.634275 8.728136e-02 6.508600e-14 1 
    0.634550 8.825766e-02 6.575700e-14 1 
    0.634825 8.881241e-02 6.611300e-14 1 
    0.635100 9.017875e-02 6.707200e-14 1 
    0.635375 8.663297e-02 6.437900e-14 1 
    0.635650 8.917539e-02 6.621100e-14 1 
    0.635925 8.360848e-02 6.202400e-14 1 
    0.636200 8.698221e-02 6.447100e-14 1 
    0.636475 8.775691e-02 6.498900e-14 1 
    0.636750 8.798953e-02 6.510500e-14 1 
    0.637025 9.010402e-02 6.661200e-14 1 
    0.637300 8.860190e-02 6.544500e-14 1 
    0.637575 8.981659e-02 6.628500e-14 1 
    0.637850 9.161507e-02 6.755400e-14 1 
    0.638125 9.006527e-02 6.635400e-14 1 
    0.638400 9.056949e-02 6.666800e-14 1 
    0.638675 9.009143e-02 6.625900e-14 1 
    0.638950 9.355891e-02 6.875000e-14 1 
    0.639225 9.255257e-02 6.795200e-14 1 
    0.639500 9.515687e-02 6.980400e-14 1 
    0.639775 9.908763e-02 7.262500e-14 1 
    0.640050 1.055759e-01 7.731400e-14 1 
    0.640325 1.169872e-01 8.559700e-14 1 
    0.640600 1.327542e-01 9.705000e-14 1 
    0.640875 1.462713e-01 1.068400e-13 1 
    0.641150 1.468491e-01 1.071700e-13 1 
    0.641425 1.329400e-01 9.693600e-14 1 
    0.641700 1.188655e-01 8.659900e-14 1 
    0.641975 1.073672e-01 7.815500e-14 1 
    0.642250 1.007907e-01 7.330500e-14 1 
    0.642525 9.463769e-02 6.877100e-14 1 
    0.642800 9.383449e-02 6.812900e-14 1 
    0.643075 9.449927e-02 6.855300e-14 1 
    0.643350 9.450147e-02 6.849600e-14 1 
    0.643625 9.339061e-02 6.763300e-14 1 
    0.643900 9.307656e-02 6.734800e-14 1 
    0.644175 9.245202e-02 6.683900e-14 1 
    0.644450 9.332977e-02 6.741600e-14 1 
    0.644725 9.278870e-02 6.696800e-14 1 
    0.645000 9.359730e-02 6.749400e-14 1 
    0.645275 9.536348e-02 6.870900e-14 1 
    0.645550 9.372227e-02 6.746900e-14 1 
    0.645825 9.326547e-02 6.708300e-14 1 
    0.646100 9.510376e-02 6.834700e-14 1 
    0.646375 9.904382e-02 7.111800e-14 1 
    0.646650 1.007882e-01 7.230900e-14 1 
    0.646925 1.014347e-01 7.271100e-14 1 
    0.647200 1.100254e-01 7.880200e-14 1 
    0.647475 1.101664e-01 7.883600e-14 1 
    0.647750 1.094209e-01 7.823600e-14 1 
    0.648025 1.042744e-01 7.449300e-14 1 
    0.648300 9.959541e-02 7.109000e-14 1 
    0.648575 9.762856e-02 6.962700e-14 1 
    0.648850 9.371039e-02 6.677600e-14 1 
    0.649125 9.463538e-02 6.737800e-14 1 
    0.649400 9.716578e-02 6.912100e-14 1 
    0.649675 9.963141e-02 7.081500e-14 1 
    0.649950 9.710513e-02 6.896100e-14 1 
    0.650225 9.478022e-02 6.725300e-14 1 
    0.650500 9.208737e-02 6.528700e-14 1 
    0.650775 9.540932e-02 6.758500e-14 1 
    0.651050 9.702861e-02 6.867400e-14 1 
    0.651325 9.487634e-02 6.709400e-14 1 
    0.651600 9.579007e-02 6.768300e-14 1 
    0.651875 9.717976e-02 6.860700e-14 1 
    0.652150 9.448173e-02 6.664600e-14 1 
    0.652425 9.956291e-02 7.017100e-14 1 
    0.652700 9.887009e-02 6.962400e-14 1 
    0.652975 9.609102e-02 6.761000e-14 1 
    0.653250 9.669116e-02 6.797500e-14 1 
    0.653525 9.718972e-02 6.826800e-14 1 
    0.653800 9.274337e-02 6.509000e-14 1 
    0.654075 9.398506e-02 6.590600e-14 1 
    0.654350 9.498896e-02 6.655400e-14 1 
    0.654625 9.794285e-02 6.856600e-14 1 
    0.654900 9.804803e-02 6.858200e-14 1 
    0.655175 9.714741e-02 6.789500e-14 1 
    0.655450 9.575825e-02 6.686800e-14 1 
    0.655725 9.174096e-02 6.400900e-14 1 
    0.656000 9.348476e-02 6.517100e-14 1 
    0.656275 9.517396e-02 6.629300e-14 1 
    0.656550 9.588739e-02 6.673400e-14 1 
    0.656825 9.180023e-02 6.383600e-14 1 
    0.657100 9.120785e-02 6.337100e-14 1 
    0.657375 9.618471e-02 6.677300e-14 1 
    0.657650 9.818263e-02 6.810300e-14 1 
    0.657925 9.971341e-02 6.910700e-14 1 
    0.658200 9.852021e-02 6.822300e-14 1 
    0.658475 9.617446e-02 6.654300e-14 1 
    0.658750 9.739608e-02 6.733200e-14 1 
    0.659025 9.803046e-02 6.771400e-14 1 
    0.659300 9.591862e-02 6.620000e-14 1 
    0.659575 9.597544e-02 6.618400e-14 1 
    0.659850 9.644010e-02 6.644900e-14 1 
    0.660125 9.728453e-02 6.697500e-14 1 
    0.660400 9.795729e-02 6.738200e-14 1 
    0.660675 9.285191e-02 6.381700e-14 1 
    0.660950 9.367334e-02 6.432800e-14 1 
    0.661225 9.555410e-02 6.556500e-14 1 
    0.661500 9.743644e-02 6.680100e-14 1 
    0.661775 9.892619e-02 6.776600e-14 1 
    0.662050 1.001174e-01 6.852500e-14 1 
    0.662325 1.015560e-01 6.945200e-14 1 
    0.662600 1.004696e-01 6.865200e-14 1 
    0.662875 1.013586e-01 6.920200e-14 1 
    0.663150 1.005676e-01 6.860500e-14 1 
    0.663425 1.023602e-01 6.977000e-14 1 
    0.663700 1.053391e-01 7.174100e-14 1 
    0.663975 1.060069e-01 7.213600e-14 1 
    0.664250 1.076582e-01 7.319900e-14 1 
    0.664525 1.124783e-01 7.641300e-14 1 
    0.664800 1.149138e-01 7.800300e-14 1 
    0.665075 1.193333e-01 8.093600e-14 1 
    0.665350 1.309007e-01 8.870800e-14 1 
    0.665625 1.486455e-01 1.006500e-13 1 
    0.665900 1.703039e-01 1.152200e-13 1 
    0.666175 1.779003e-01 1.202600e-13 1 
    0.666450 1.827108e-01 1.234100e-13 1 
    0.666725 1.872624e-01 1.263800e-13 1 
    0.667000 2.113519e-01 1.425200e-13 1 
    0.667275 2.563339e-01 1.727100e-13 1 
    0.667550 2.923436e-01 1.968100e-13 1 
    0.667825 2.904586e-01 1.953800e-13 1 
    0.668100 2.522664e-01 1.695500e-13 1 
    0.668375 2.071911e-01 1.391400e-13 1 
    0.668650 1.794034e-01 1.203800e-13 1 
    0.668925 1.827728e-01 1.225400e-13 1 
    0.669200 2.169879e-01 1.453600e-13 1 
    0.669475 2.672597e-01 1.788900e-13 1 
    0.669750 2.972790e-01 1.988200e-13 1 
    0.670025 2.788775e-01 1.863600e-13 1 
    0.670300 2.330979e-01 1.556400e-13 1 
    0.670575 1.839154e-01 1.227000e-13 1 
    0.670850 1.496352e-01 9.974800e-14 1 
    0.671125 1.277570e-01 8.509400e-14 1 
    0.671400 1.156260e-01 7.695100e-14 1 
    0.671675 1.104739e-01 7.346200e-14 1 
    0.671950 1.108730e-01 7.366700e-14 1 
    0.672225 1.061813e-01 7.049200e-14 1 
    0.672500 1.083832e-01 7.189500e-14 1 
    0.672775 1.078276e-01 7.146800e-14 1 
    0.673050 1.086134e-01 7.193000e-14 1 
    0.673325 1.098205e-01 7.267000e-14 1 
    0.673600 1.204415e-01 7.963300e-14 1 
    0.673875 1.357509e-01 8.968200e-14 1 
    0.674150 1.525532e-01 1.007000e-13 1 
    0.674425 1.542848e-01 1.017600e-13 1 
    0.674700 1.333567e-01 8.788500e-14 1 
    0.674975 1.139677e-01 7.504600e-14 1 
    0.675250 1.053000e-01 6.928200e-14 1 
    0.675525 1.043560e-01 6.860500e-14 1 
    0.675800 1.049966e-01 6.897000e-14 1 
    0.676075 1.034473e-01 6.789700e-14 1 
    0.676350 1.078879e-01 7.075400e-14 1 
    0.676625 1.009771e-01 6.616800e-14 1 
    0.676900 1.050989e-01 6.881300e-14 1 
    0.677175 1.031483e-01 6.748100e-14 1 
    0.677450 1.005412e-01 6.572200e-14 1 
    0.677725 9.971033e-02 6.512600e-14 1 
    0.678000 1.018185e-01 6.644900e-14 1 
    0.678275 9.725604e-02 6.342000e-14 1 
    0.678550 9.778614e-02 6.371400e-14 1 
    0.678825 9.928162e-02 6.463600e-14 1 
    0.679100 9.843819e-02 6.403500e-14 1 
    0.679375 9.994720e-02 6.496400e-14 1 
    0.679650 9.923824e-02 6.445100e-14 1 
    0.679925 9.996732e-02 6.487200e-14 1 
    0.680200 9.773485e-02 6.337200e-14 1 
    0.680475 9.871837e-02 6.395800e-14 1 
    0.680750 9.970030e-02 6.454200e-14 1 
    0.681025 9.942065e-02 6.430900e-14 1 
    0.681300 9.915747e-02 6.408700e-14 1 
    0.681575 9.879158e-02 6.379900e-14 1 
    0.681850 1.007775e-01 6.502900e-14 1 
    0.682125 1.059196e-01 6.829200e-14 1 
    0.682400 1.189196e-01 7.661200e-14 1 
    0.682675 1.388830e-01 8.940100e-14 1 
    0.682950 1.688598e-01 1.086100e-13 1 
    0.683912 9.981946e-02 6.402300e-14 0 
    0.685488 1.028441e-01 6.566000e-14 0 
    0.687068 1.011929e-01 6.430900e-14 0 
    0.688652 1.037815e-01 6.565100e-14 0 
    0.690240 1.044941e-01 6.579800e-14 0 
    0.691831 1.028161e-01 6.444400e-14 0 
    0.693426 1.039992e-01 6.488600e-14 0 
    0.695024 1.059250e-01 6.578400e-14 0 
    0.696626 1.020868e-01 6.310900e-14 0 
    0.698233 1.037381e-01 6.383500e-14 0 
    0.699842 1.034919e-01 6.339100e-14 0 
    0.701455 1.022998e-01 6.237300e-14 0 
    0.703072 1.039551e-01 6.309100e-14 0 
    0.704693 1.044284e-01 6.308700e-14 0 
    0.706318 1.070990e-01 6.440300e-14 0 
    0.707946 1.090818e-01 6.529400e-14 0 
    0.709578 1.095786e-01 6.529000e-14 0 
    0.711214 1.098231e-01 6.513500e-14 0 
    0.712853 1.075621e-01 6.350100e-14 0 
    0.714496 1.065695e-01 6.262600e-14 0 
    0.716143 1.105608e-01 6.467300e-14 0 
    0.717794 1.136490e-01 6.617400e-14 0 
    0.719449 1.075311e-01 6.232400e-14 0 
    0.721108 1.113018e-01 6.421300e-14 0 
    0.722770 1.065306e-01 6.117800e-14 0 
    0.724436 1.057890e-01 6.047300e-14 0 
    0.726106 1.045708e-01 5.950200e-14 0 
    0.727780 1.067519e-01 6.046400e-14 0 
    0.729457 1.077323e-01 6.073900e-14 0 
    0.731139 1.062464e-01 5.962600e-14 0 
    0.732825 1.047804e-01 5.853300e-14 0 
    0.734514 1.104720e-01 6.142900e-14 0 
    0.736207 1.109728e-01 6.142400e-14 0 
    0.737904 1.089404e-01 6.002200e-14 0 
    0.739605 1.089309e-01 5.974100e-14 0 
    0.741310 1.109486e-01 6.056800e-14 0 
    0.743019 1.137868e-01 6.183200e-14 0 
    0.744732 1.135152e-01 6.140100e-14 0 
    0.746449 1.166878e-01 6.282700e-14 0 
    0.748170 1.169484e-01 6.267800e-14 0 
    0.749894 1.150681e-01 6.138700e-14 0 
    0.751623 1.221582e-01 6.487000e-14 0 
    0.753356 1.218690e-01 6.441900e-14 0 
    0.755092 1.179935e-01 6.208400e-14 0 
    0.756833 1.210108e-01 6.337900e-14 0 
    0.758578 1.212818e-01 6.322900e-14 0 
    0.760326 1.232423e-01 6.395600e-14 0 
    0.762079 1.226671e-01 6.336500e-14 0 
    0.763836 1.249371e-01 6.424100e-14 0 
    0.765597 1.272507e-01 6.513000e-14 0 
    0.767361 1.275336e-01 6.497500e-14 0 
    0.769130 1.263554e-01 6.407900e-14 0 
    0.770904 1.257643e-01 6.348600e-14 0 
    0.772681 1.251765e-01 6.289900e-14 0 
    0.774462 1.240189e-01 6.203100e-14 0 
    0.776247 1.225907e-01 6.103500e-14 0 
    0.778037 1.240002e-01 6.145300e-14 0 
    0.779830 1.257157e-01 6.201700e-14 0 
    0.781628 1.217180e-01 5.976900e-14 0 
    0.783430 1.228343e-01 6.004000e-14 0 
    0.785236 1.233910e-01 6.003500e-14 0 
    0.787046 1.214085e-01 5.879900e-14 0 
    0.788860 1.216783e-01 5.865900e-14 0 
    0.790679 1.245033e-01 5.974500e-14 0 
    0.792501 1.213805e-01 5.797900e-14 0 
    0.794328 1.222121e-01 5.810800e-14 0 
    0.796159 1.282550e-01 6.070100e-14 0 
    0.797995 1.227552e-01 5.783100e-14 0 
    0.799834 1.270598e-01 5.958400e-14 0 
    0.801678 1.279291e-01 5.971600e-14 0 
    0.803526 1.296990e-01 6.026400e-14 0 
    0.805378 1.279084e-01 5.915900e-14 0 
    0.807235 1.258533e-01 5.794100e-14 0 
    0.809096 1.215703e-01 5.571200e-14 0 
    0.810961 1.269981e-01 5.793200e-14 0 
    0.812831 1.275734e-01 5.792700e-14 0 
    0.814704 1.263921e-01 5.712700e-14 0 
    0.816582 1.329500e-01 5.981500e-14 0 
    0.818465 1.347876e-01 6.036300e-14 0 
    0.820352 1.341580e-01 5.980500e-14 0 
    0.822243 1.304909e-01 5.790300e-14 0 
    0.824138 1.289853e-01 5.697200e-14 0 
    0.826038 1.344321e-01 5.910500e-14 0 
    0.827942 1.362910e-01 5.964700e-14 0 
    0.829851 1.334861e-01 5.815100e-14 0 
    0.831764 1.313396e-01 5.695300e-14 0 
    0.833681 1.298258e-01 5.603800e-14 0 
    0.835603 1.365603e-01 5.867400e-14 0 
    0.837529 1.340550e-01 5.733300e-14 0 
    0.839460 1.390759e-01 5.920700e-14 0 
    0.841395 1.416481e-01 6.002500e-14 0 
    0.843335 1.377763e-01 5.811600e-14 0 
    0.845279 1.371309e-01 5.757800e-14 0 
    0.847227 1.383882e-01 5.783900e-14 0 
    0.849180 1.355392e-01 5.638800e-14 0 
    0.851138 1.393235e-01 5.769600e-14 0 
    0.853100 1.377177e-01 5.676900e-14 0 
    0.855067 1.415633e-01 5.808600e-14 0 
    0.857038 1.373762e-01 5.610900e-14 0 
    0.859014 1.367338e-01 5.559000e-14 0 
    0.860994 1.392651e-01 5.635900e-14 0 
    0.862979 1.382944e-01 5.570900e-14 0 
    0.864968 1.418280e-01 5.687000e-14 0 
    0.866962 1.395489e-01 5.569900e-14 0 
    0.868960 1.398580e-01 5.556600e-14 0 
    0.870964 1.347867e-01 5.330500e-14 0 
    0.872971 1.417771e-01 5.581200e-14 0 
    0.874984 1.414389e-01 5.542300e-14 0 
    0.877001 1.401305e-01 5.465800e-14 0 
    0.879023 1.440433e-01 5.592600e-14 0 
    0.881049 1.378641e-01 5.328100e-14 0 
    0.883080 1.353370e-01 5.206400e-14 0 
    0.885116 1.322457e-01 5.064100e-14 0 
    0.887156 1.446564e-01 5.513900e-14 0 
    0.889201 1.446441e-01 5.488100e-14 0 
    0.891251 1.403657e-01 5.301300e-14 0 
    0.893305 1.476448e-01 5.550600e-14 0 
    0.895365 1.462796e-01 5.474000e-14 0 
    0.897429 1.479588e-01 5.511400e-14 0 
    0.899498 1.503491e-01 5.574700e-14 0 
    0.901571 1.489566e-01 5.497700e-14 0 
    0.903650 1.415874e-01 5.201700e-14 0 
    0.905733 1.442070e-01 5.273600e-14 0 
    0.907820 1.451910e-01 5.285200e-14 0 
    0.909913 1.461841e-01 5.296900e-14 0 
    0.912011 1.435043e-01 5.175900e-14 0 
    0.914113 1.415204e-01 5.080900e-14 0 
    0.916220 1.478371e-01 5.283300e-14 0 
    0.918333 1.299383e-01 4.622300e-14 0 
    0.920450 1.565678e-01 5.544000e-14 0 
    0.922571 1.601982e-01 5.646500e-14 0 
    0.924698 1.519225e-01 5.330200e-14 0 
    0.926830 1.498235e-01 5.232400e-14 0 
    0.928966 1.414277e-01 4.916500e-14 0 
    0.931108 1.508341e-01 5.219400e-14 0 
    0.933254 1.536234e-01 5.291500e-14 0 
    0.935406 1.508035e-01 5.170500e-14 0 
    0.937562 1.535945e-01 5.242000e-14 0 
    0.939723 1.433267e-01 4.869100e-14 0 
    0.941890 1.476702e-01 4.993600e-14 0 
    0.944061 1.622731e-01 5.462200e-14 0 
    0.946237 1.514270e-01 5.073700e-14 0 
    0.948418 1.585483e-01 5.287900e-14 0 
    0.950605 1.589008e-01 5.275300e-14 0 
    0.952796 1.574281e-01 5.202400e-14 0 
    0.954993 1.599699e-01 5.262100e-14 0 
    0.957194 1.573975e-01 5.153700e-14 0 
    0.959401 1.617906e-01 5.273200e-14 0 
    0.961612 1.602902e-01 5.200300e-14 0 
    0.963829 1.636312e-01 5.284300e-14 0 
    0.966051 1.643710e-01 5.283800e-14 0 
    0.968278 1.617264e-01 5.174900e-14 0 
    0.970510 1.620835e-01 5.162500e-14 0 
    0.972747 1.572898e-01 4.986800e-14 0 
    0.974990 1.658268e-01 5.233300e-14 0 
    0.977237 1.650481e-01 5.184800e-14 0 
    0.979490 1.661746e-01 5.196200e-14 0 
    0.981748 1.650140e-01 5.136200e-14 0 
    0.984011 1.653786e-01 5.123900e-14 0 
    0.986279 1.676625e-01 5.170800e-14 0 
    0.988553 1.664919e-01 5.111100e-14 0 
    0.990832 1.657093e-01 5.063700e-14 0 
    0.993116 1.656949e-01 5.040000e-14 0 
    0.995405 1.649139e-01 4.993200e-14 0 
    0.997700 1.683529e-01 5.073900e-14 0 
    1.000000 1.679467e-01 5.038400e-14 0 
    1.002305 1.690935e-01 5.049500e-14 0 
    1.004615 1.686863e-01 5.014200e-14 0 
    1.006931 1.690594e-01 5.002200e-14 0 
    1.009253 1.686550e-01 4.967300e-14 0 
    1.011580 1.701977e-01 4.989700e-14 0 
    1.013912 1.709628e-01 4.989100e-14 0 
    1.016249 1.709462e-01 4.965700e-14 0 
    1.020939 1.709121e-01 4.919200e-14 0 
    1.025652 1.696990e-01 4.839500e-14 0 
    1.030386 1.744153e-01 4.928400e-14 0 
    1.035142 1.739790e-01 4.871000e-14 0 
    1.039921 1.759568e-01 4.881200e-14 0 
    1.044720 1.771371e-01 4.868900e-14 0 
    1.047129 1.771179e-01 4.846000e-14 0 
    1.069054 1.785821e-01 4.687700e-14 0 
    1.088931 1.777549e-01 4.497200e-14 0 
    1.109175 1.765313e-01 4.304700e-14 0 
    1.129796 1.769400e-01 4.158600e-14 0 
    1.150800 1.789891e-01 4.054600e-14 0 
    1.169499 1.827376e-01 4.008200e-14 0 
    1.191243 1.844257e-01 3.898900e-14 0 
    1.210599 1.835797e-01 3.757900e-14 0 
    1.230269 1.857039e-01 3.680800e-14 0 
    1.250259 1.878539e-01 3.605300e-14 0 
    1.270574 1.887239e-01 3.507100e-14 0 
    1.291219 1.900328e-01 3.419400e-14 0 
    1.312200 1.917875e-01 3.341500e-14 0 
    1.333521 1.940102e-01 3.273000e-14 0 
    1.352073 1.935655e-01 3.176500e-14 0 
    1.374042 1.962567e-01 3.118500e-14 0 
    1.393157 1.976146e-01 3.054500e-14 0 
    1.415794 1.976143e-01 2.957600e-14 0 
    1.435490 1.953548e-01 2.844100e-14 0 
    1.455459 1.971629e-01 2.792200e-14 0 
    1.475707 2.031514e-01 2.798600e-14 0 
    1.496236 2.022238e-01 2.709900e-14 0 
    1.517051 2.093240e-01 2.728600e-14 0 
    1.538154 2.146991e-01 2.722400e-14 0 
    1.555965 2.222422e-01 2.753900e-14 0 
    1.577611 2.263698e-01 2.728600e-14 0 
    1.595879 2.274149e-01 2.678800e-14 0 
    1.618080 2.258532e-01 2.587900e-14 0 
    1.636817 2.316500e-01 2.593900e-14 0 
    1.659586 2.364962e-01 2.576000e-14 0 
    1.678804 2.375896e-01 2.529000e-14 0 
    1.698244 2.408936e-01 2.505800e-14 0 
    1.717909 2.414484e-01 2.454400e-14 0 
    1.741808 2.425599e-01 2.398500e-14 0 
    1.761975 2.386886e-01 2.306500e-14 0 
    1.782379 2.370372e-01 2.238400e-14 0 
    1.803018 2.337920e-01 2.157500e-14 0 
    1.819702 2.295183e-01 2.079400e-14 0 
    1.840771 2.242920e-01 1.985800e-14 0 
    1.862087 2.237839e-01 1.936200e-14 0 
    1.883649 2.217347e-01 1.874800e-14 0 
    1.901077 2.161830e-01 1.794500e-14 0 
    1.923091 2.156836e-01 1.749600e-14 0 
    1.945360 2.166836e-01 1.717700e-14 0 
    1.963361 2.132211e-01 1.659400e-14 0 
    1.986094 2.098116e-01 1.595700e-14 0 
    2.004472 2.074044e-01 1.548600e-14 0 
    2.023020 2.050397e-01 1.503000e-14 0 
    2.046444 2.059765e-01 1.475500e-14 0 
    2.065380 2.026821e-01 1.425400e-14 0 
    2.084490 2.036258e-01 1.405900e-14 0 
    2.108628 2.026925e-01 1.367600e-14 0 
    2.128139 2.017508e-01 1.336400e-14 0 
    2.147829 2.017493e-01 1.312000e-14 0 
    2.167704 2.008327e-01 1.282200e-14 0 
    2.187762 1.999079e-01 1.253000e-14 0 
    2.208004 1.971564e-01 1.213200e-14 0 
    2.228435 1.971637e-01 1.191100e-14 0 
    2.249056 1.953497e-01 1.158600e-14 0 
    2.269865 1.935714e-01 1.127100e-14 0 
    2.290868 1.926744e-01 1.101400e-14 0 
    2.312064 1.900731e-01 1.066700e-14 0 
    2.328092 1.725931e-01 9.553100e-15 0 
    2.349632 1.720824e-01 9.351000e-15 0 
    2.371374 1.532268e-01 8.174400e-15 0 
    2.393317 1.458187e-01 7.637200e-15 0 
    2.409905 1.481142e-01 7.651000e-15 0 
    2.432205 1.376743e-01 6.981900e-15 0 
    2.454708 1.342723e-01 6.685100e-15 0 
    2.471725 1.331956e-01 6.540500e-15 0 
    2.494594 1.257129e-01 6.060400e-15 0 
    2.511887 1.243659e-01 5.913200e-15 0 
    2.535128 1.077294e-01 5.028700e-15 0 
    2.551210 1.106865e-01 5.101800e-15 2 
    2.560890 1.076697e-01 4.925300e-15 2 
    2.570560 1.003964e-01 4.558100e-15 2 
    2.580240 1.006369e-01 4.534800e-15 2 
    2.589920 1.052145e-01 4.705700e-15 2 
    2.599590 1.129803e-01 5.015500e-15 2 
    2.609270 1.126954e-01 4.965800e-15 2 
    2.618940 1.137906e-01 4.977100e-15 2 
    2.628620 1.155315e-01 5.016100e-15 2 
    2.638300 1.209386e-01 5.212400e-15 2 
    2.647970 1.147542e-01 4.909800e-15 2 
    2.657650 1.133322e-01 4.813700e-15 2 
    2.667330 1.097364e-01 4.627200e-15 2 
    2.677000 1.234735e-01 5.168900e-15 2 
    2.686680 1.248252e-01 5.187900e-15 2 
    2.696350 1.226403e-01 5.060600e-15 2 
    2.706030 1.203811e-01 4.931900e-15 2 
    2.715710 1.173326e-01 4.772800e-15 2 
    2.725380 1.214453e-01 4.905100e-15 2 
    2.735060 1.162977e-01 4.664000e-15 2 
    2.744740 1.233350e-01 4.911400e-15 2 
    2.754410 1.231030e-01 4.867800e-15 2 
    2.764090 1.046987e-01 4.111100e-15 2 
    2.773760 9.839273e-02 3.836600e-15 2 
    2.783440 8.025675e-02 3.107700e-15 2 
    2.793120 1.006344e-01 3.869800e-15 2 
    2.802790 8.552426e-02 3.266100e-15 2 
    2.812470 9.629882e-02 3.652300e-15 2 
    2.822150 8.350014e-02 3.145200e-15 2 
    2.831820 1.030922e-01 3.856700e-15 2 
    2.841500 1.078730e-01 4.008100e-15 2 
    2.851170 1.215148e-01 4.484400e-15 2 
    2.860850 1.167841e-01 4.280700e-15 2 
    2.870530 1.225664e-01 4.462400e-15 2 
    2.880200 1.081574e-01 3.911400e-15 2 
    2.889880 1.072850e-01 3.853900e-15 2 
    2.899560 1.040478e-01 3.712700e-15 2 
    2.909230 1.174045e-01 4.161500e-15 2 
    2.918910 1.183319e-01 4.166600e-15 2 
    2.928580 1.163528e-01 4.069900e-15 2 
    2.938260 1.129993e-01 3.926600e-15 2 
    2.947940 1.161407e-01 4.009300e-15 2 
    2.957610 1.117925e-01 3.834000e-15 2 
    2.967290 1.117389e-01 3.807200e-15 2 
    2.976970 1.036186e-01 3.507600e-15 2 
    2.986640 1.092316e-01 3.673700e-15 2 
    2.996320 1.096026e-01 3.662400e-15 2 
    3.005990 1.152057e-01 3.824900e-15 2 
    3.015670 1.030107e-01 3.398100e-15 2 
    3.025350 1.063366e-01 3.485400e-15 2 
    3.035020 9.355350e-02 3.046900e-15 2 
    3.044700 1.039715e-01 3.364700e-15 2 
    3.054380 1.012347e-01 3.255400e-15 2 
    3.064050 1.108426e-01 3.541900e-15 2 
    3.073730 1.155846e-01 3.670200e-15 2 
    3.083400 1.163003e-01 3.669800e-15 2 
    3.093080 1.187952e-01 3.725100e-15 2 
    3.102760 1.150280e-01 3.584500e-15 2 
    3.112430 1.027750e-01 3.182800e-15 2 
    3.122110 9.497382e-02 2.923000e-15 2 
    3.131790 8.484995e-02 2.595300e-15 2 
    3.141460 9.842125e-02 2.991900e-15 2 
    3.151140 9.697329e-02 2.929800e-15 2 
    3.160810 1.128851e-01 3.389700e-15 2 
    3.170490 1.137016e-01 3.393400e-15 2 
    3.180170 1.279794e-01 3.796300e-15 2 
    3.189840 1.258522e-01 3.710600e-15 2 
    3.199520 1.233652e-01 3.615300e-15 2 
    3.209200 1.199143e-01 3.493000e-15 2 
    3.218870 1.302808e-01 3.772200e-15 2 
    3.228550 1.287967e-01 3.706900e-15 2 
    3.238220 1.341308e-01 3.837400e-15 2 
    3.247900 1.182034e-01 3.361600e-15 2 
    3.257580 1.288594e-01 3.642900e-15 2 
    3.267250 1.152963e-01 3.240200e-15 2 
    3.276930 1.251438e-01 3.496200e-15 2 
    3.286610 1.286675e-01 3.573500e-15 2 
    3.296280 1.488677e-01 4.110300e-15 2 
    3.305960 1.426028e-01 3.914300e-15 2 
    3.315630 1.336028e-01 3.645900e-15 2 
    3.325310 1.297620e-01 3.520500e-15 2 
    3.334990 1.408288e-01 3.798600e-15 2 
    3.344660 1.290615e-01 3.461100e-15 2 
    3.354340 1.314524e-01 3.504900e-15 2 
    3.364020 1.224686e-01 3.246600e-15 2 
    3.373690 1.424354e-01 3.754300e-15 2 
    3.383370 1.362292e-01 3.570200e-15 2 
    3.393040 1.384711e-01 3.608300e-15 2 
    3.402720 1.379887e-01 3.575300e-15 2 
    3.412400 1.352661e-01 3.484900e-15 2 
    3.422070 1.246902e-01 3.194300e-15 2 
    3.431750 1.261699e-01 3.214000e-15 2 
    3.441430 1.229823e-01 3.115200e-15 2 
    3.451100 1.293039e-01 3.257000e-15 2 
    3.460780 1.135100e-01 2.843200e-15 2 
    3.470450 1.235436e-01 3.077300e-15 2 
    3.480130 1.176815e-01 2.915000e-15 2 
    3.489810 1.483902e-01 3.655300e-15 2 
    3.499480 1.274520e-01 3.122200e-15 2 
    3.509160 1.441870e-01 3.512700e-15 2 
    3.518840 1.208547e-01 2.928100e-15 2 
    3.528510 1.354145e-01 3.262900e-15 2 
    3.538190 1.264481e-01 3.030200e-15 2 
    3.547860 1.309668e-01 3.121400e-15 2 
    3.557540 1.260378e-01 2.987600e-15 2 
    3.567220 1.306694e-01 3.080600e-15 2 
    3.576890 1.165034e-01 2.731800e-15 2 
    3.586570 1.248916e-01 2.912700e-15 2 
    3.596250 1.204581e-01 2.794200e-15 2 
    3.605920 1.284749e-01 2.964200e-15 2 
    3.615600 1.256317e-01 2.883100e-15 2 
    3.625270 1.322012e-01 3.017700e-15 2 
    3.634950 1.358106e-01 3.083600e-15 2 
    3.644630 1.314917e-01 2.969700e-15 2 
    3.654300 1.233501e-01 2.771100e-15 2 
    3.663980 1.237001e-01 2.764300e-15 2 
    3.673660 1.281784e-01 2.849300e-15 2 
    3.683330 1.400016e-01 3.095800e-15 2 
    3.693010 1.181124e-01 2.598100e-15 2 
    3.702680 1.223375e-01 2.677000e-15 2 
    3.712360 9.702718e-02 2.112100e-15 2 
    3.722040 1.204661e-01 2.608700e-15 2 
    3.731710 1.123244e-01 2.419800e-15 2 
    3.741390 1.306713e-01 2.800500e-15 2 
    3.751070 1.288204e-01 2.746600e-15 2 
    3.760740 1.380184e-01 2.927600e-15 2 
    3.770420 1.425682e-01 3.008600e-15 2 
    3.780090 1.426241e-01 2.994400e-15 2 
    3.789770 1.387212e-01 2.897600e-15 2 
    3.799450 1.354561e-01 2.815000e-15 2 
    3.809120 1.343522e-01 2.777900e-15 2 
    3.818800 1.396247e-01 2.872300e-15 2 
    3.828480 1.424246e-01 2.915100e-15 2 
    3.838150 1.440878e-01 2.934300e-15 2 
    3.847830 1.401221e-01 2.839200e-15 2 
    3.857500 1.374543e-01 2.771200e-15 2 
    3.867180 1.358121e-01 2.724400e-15 2 
    3.876860 1.447544e-01 2.889300e-15 2 
    3.886530 1.393497e-01 2.767600e-15 2 
    3.896210 1.400751e-01 2.768200e-15 2 
    3.905890 1.304233e-01 2.564700e-15 2 
    3.915560 1.358534e-01 2.658300e-15 2 
    3.925240 1.312155e-01 2.554900e-15 2 
    3.934910 1.352537e-01 2.620600e-15 2 
    3.944590 1.289647e-01 2.486500e-15 2 
    3.954270 1.346854e-01 2.584100e-15 2 
    3.963940 1.257759e-01 2.401400e-15 2 
    3.973620 1.316015e-01 2.500400e-15 2 
    3.983300 1.338407e-01 2.530600e-15 2 
    3.992970 1.434411e-01 2.699000e-15 2 
    4.002650 1.377931e-01 2.580200e-15 2 
    4.012320 1.381430e-01 2.574300e-15 2 
    4.022000 1.372844e-01 2.546000e-15 2 
    4.031680 1.419717e-01 2.620300e-15 2 
    4.041350 1.404487e-01 2.579800e-15 2 
    4.051030 1.419046e-01 2.594100e-15 2 
    4.060710 1.413963e-01 2.572500e-15 2 
    4.070380 1.389723e-01 2.516400e-15 2 
    4.080060 1.204624e-01 2.170900e-15 2 
    4.089730 1.233981e-01 2.213300e-15 2 
    4.099410 1.259155e-01 2.247800e-15 2 
    4.109090 1.428045e-01 2.537300e-15 2 
    4.118760 1.434944e-01 2.537600e-15 2 
    4.128440 1.408688e-01 2.479500e-15 2 
    4.138120 1.427403e-01 2.500700e-15 2 
    4.147790 1.419057e-01 2.474500e-15 2 
    4.157470 1.185663e-01 2.057900e-15 2 
    4.167140 1.118252e-01 1.931900e-15 2 
    4.176820 1.027850e-01 1.767500e-15 2 
    4.186500 1.248316e-01 2.136700e-15 2 
    4.196170 1.301396e-01 2.217300e-15 2 
    4.205850 1.388128e-01 2.354200e-15 2 
    4.215530 1.392926e-01 2.351500e-15 2 
    4.225200 1.436992e-01 2.414800e-15 2 
    4.234880 1.381592e-01 2.311100e-15 2 
    4.244550 1.287138e-01 2.143300e-15 2 
    4.254230 1.352439e-01 2.241800e-15 2 
    4.263910 1.449990e-01 2.392600e-15 2 
    4.273580 1.511912e-01 2.483500e-15 2 
    4.283260 1.376891e-01 2.251500e-15 2 
    4.292940 1.305964e-01 2.125900e-15 2 
    4.302610 1.392939e-01 2.257300e-15 2 
    4.312290 1.365989e-01 2.203700e-15 2 
    4.321960 1.333331e-01 2.141400e-15 2 
    4.331640 1.327427e-01 2.122400e-15 2 
    4.341320 1.415477e-01 2.253100e-15 2 
    4.350990 1.505276e-01 2.385400e-15 2 
    4.360670 1.543040e-01 2.434400e-15 2 
    4.370350 1.524177e-01 2.394000e-15 2 
    4.380020 1.534830e-01 2.400100e-15 2 
    4.389700 1.363957e-01 2.123500e-15 2 
    4.399370 1.308684e-01 2.028500e-15 2 
    4.409050 1.171762e-01 1.808300e-15 2 
    4.418730 1.293022e-01 1.986700e-15 2 
    4.428400 1.324051e-01 2.025500e-15 2 
    4.438080 1.354007e-01 2.062300e-15 2 
    4.447760 1.327081e-01 2.012500e-15 2 
    4.457430 1.390477e-01 2.099500e-15 2 
    4.467110 1.340648e-01 2.015500e-15 2 
    4.476780 1.466775e-01 2.195600e-15 2 
    4.486460 1.374496e-01 2.048600e-15 2 
    4.496140 1.527601e-01 2.267000e-15 2 
    4.505810 1.395717e-01 2.062400e-15 2 
    4.515490 1.449432e-01 2.132600e-15 2 
    4.525170 1.395928e-01 2.045100e-15 2 
    4.534840 1.431103e-01 2.087700e-15 2 
    4.544520 1.183466e-01 1.719100e-15 2 
    4.554190 1.145921e-01 1.657500e-15 2 
    4.563870 8.834235e-02 1.272400e-15 2 
    4.573550 1.141391e-01 1.637000e-15 2 
    4.583220 1.207629e-01 1.724700e-15 2 
    4.592900 1.490413e-01 2.119600e-15 2 
    4.602580 1.320030e-01 1.869400e-15 2 
    4.612250 1.348486e-01 1.901700e-15 2 
    4.621930 1.181189e-01 1.658800e-15 2 
    4.631600 1.396864e-01 1.953500e-15 2 
    4.641280 1.234973e-01 1.719900e-15 2 
    4.650960 1.383979e-01 1.919400e-15 2 
    4.660630 1.288083e-01 1.779000e-15 2 
    4.670310 1.461245e-01 2.009800e-15 2 
    4.679990 1.416203e-01 1.939800e-15 2 
    4.689660 1.476164e-01 2.013600e-15 2 
    4.699340 1.272836e-01 1.729100e-15 2 
    4.709010 1.373875e-01 1.858700e-15 2 
    4.718690 1.293508e-01 1.742800e-15 2 
    4.728370 1.535139e-01 2.059900e-15 2 
    4.738040 1.542098e-01 2.060800e-15 2 
    4.747720 1.682899e-01 2.239800e-15 2 
    4.757400 1.732998e-01 2.297100e-15 2 
    4.767070 1.755957e-01 2.318100e-15 2 
    4.776750 1.711377e-01 2.250100e-15 2 
    4.786420 1.585665e-01 2.076400e-15 2 
    4.796100 1.543166e-01 2.012600e-15 2 
    4.805780 1.555637e-01 2.020700e-15 2 
    4.815450 1.636803e-01 2.117600e-15 2 
    4.825130 1.638812e-01 2.111700e-15 2 
    4.834810 1.610175e-01 2.066500e-15 2 
    4.844480 1.627965e-01 2.081000e-15 2 
    4.854160 1.600783e-01 2.038100e-15 2 
    4.863830 1.642889e-01 2.083400e-15 2 
    4.873510 1.548572e-01 1.956000e-15 2 
    4.883190 1.609654e-01 2.025100e-15 2 
    4.892860 1.586908e-01 1.988600e-15 2 
    4.902540 1.531023e-01 1.911000e-15 2 
    4.912220 1.480048e-01 1.840100e-15 2 
    4.921890 1.517373e-01 1.879100e-15 2 
    4.931570 1.592499e-01 1.964400e-15 2 
    4.941340 1.527843e-01 1.877200e-15 2 
    4.990753 1.512557e-01 1.821800e-15 0 
    5.040661 1.495615e-01 1.765900e-15 0 
    5.091067 1.476863e-01 1.709400e-15 0 
    5.141978 1.456312e-01 1.652400e-15 0 
    5.193398 1.433799e-01 1.594800e-15 0 
    5.245332 1.409242e-01 1.536600e-15 0 
    5.297785 1.382557e-01 1.477800e-15 0 
    5.335773 1.362122e-01 1.435300e-15 3 
    5.366758 1.451145e-01 1.511500e-15 3 
    5.397744 1.569926e-01 1.616500e-15 3 
    5.428729 1.653623e-01 1.683300e-15 3 
    5.459714 1.471048e-01 1.480500e-15 3 
    5.490700 1.276558e-01 1.270300e-15 3 
    5.521685 1.391925e-01 1.369600e-15 3 
    5.552670 1.444486e-01 1.405500e-15 3 
    5.583656 1.530697e-01 1.472900e-15 3 
    5.614641 1.734671e-01 1.650800e-15 3 
    5.645627 1.456707e-01 1.371100e-15 3 
    5.676612 1.429346e-01 1.330700e-15 3 
    5.707598 1.399277e-01 1.288600e-15 3 
    5.738583 1.338988e-01 1.219800e-15 3 
    5.769568 1.515932e-01 1.366200e-15 3 
    5.800553 1.581942e-01 1.410500e-15 3 
    5.831539 1.465128e-01 1.292500e-15 3 
    5.862525 1.429644e-01 1.247900e-15 3 
    5.893510 1.455679e-01 1.257300e-15 3 
    5.924495 1.479099e-01 1.264200e-15 3 
    5.955481 1.568739e-01 1.326900e-15 3 
    5.986466 1.554762e-01 1.301500e-15 3 
    6.017451 1.602883e-01 1.328000e-15 3 
    6.048437 1.538462e-01 1.261600e-15 3 
    6.079422 1.494760e-01 1.213300e-15 3 
    6.110407 1.572264e-01 1.263300e-15 3 
    6.141393 1.590639e-01 1.265200e-15 3 
    6.172378 1.605714e-01 1.264400e-15 3 
    6.203363 1.650096e-01 1.286400e-15 3 
    6.234349 1.676338e-01 1.293900e-15 3 
    6.265334 1.731381e-01 1.323200e-15 3 
    6.296319 1.802067e-01 1.363700e-15 3 
    6.327305 1.933147e-01 1.448600e-15 3 
    6.358290 1.928678e-01 1.431200e-15 3 
    6.389276 1.959089e-01 1.439700e-15 3 
    6.420261 1.873987e-01 1.363900e-15 3 
    6.451246 1.730084e-01 1.247100e-15 3 
    6.482232 1.757388e-01 1.254700e-15 3 
    6.513217 1.791340e-01 1.266800e-15 3 
    6.544202 1.793577e-01 1.256400e-15 3 
    6.575188 1.726586e-01 1.198100e-15 3 
    6.606173 1.763263e-01 1.212100e-15 3 
    6.637158 1.662958e-01 1.132500e-15 3 
    6.668145 1.707868e-01 1.152300e-15 3 
    6.699129 1.644492e-01 1.099300e-15 3 
    6.730114 1.685557e-01 1.116400e-15 3 
    6.761100 1.691666e-01 1.110200e-15 3 
    6.792085 1.851448e-01 1.204000e-15 3 
    6.823071 1.945349e-01 1.253600e-15 3 
    6.854056 1.804742e-01 1.152500e-15 3 
    6.885041 1.873081e-01 1.185400e-15 3 
    6.916027 1.951204e-01 1.223800e-15 3 
    6.947012 2.006048e-01 1.247000e-15 3 
    6.977998 2.222973e-01 1.369600e-15 3 
    7.008983 2.643298e-01 1.614200e-15 3 
    7.039968 2.712812e-01 1.642100e-15 3 
    7.070954 2.449921e-01 1.470000e-15 3 
    7.101939 2.755235e-01 1.638800e-15 3 
    7.132924 2.322100e-01 1.369200e-15 3 
    7.163910 2.119411e-01 1.238900e-15 3 
    7.194895 2.243043e-01 1.299900e-15 3 
    7.225881 2.098977e-01 1.206000e-15 3 
    7.256866 2.254289e-01 1.284200e-15 3 
    7.287851 2.311645e-01 1.305700e-15 3 
    7.318838 2.438118e-01 1.365500e-15 3 
    7.349822 2.380836e-01 1.322200e-15 3 
    7.380807 2.556392e-01 1.407800e-15 3 
    7.411793 2.511980e-01 1.371800e-15 3 
    7.442778 2.391031e-01 1.294900e-15 3 
    7.473763 2.577062e-01 1.384100e-15 3 
    7.504748 2.729515e-01 1.453900e-15 3 
    7.533706 2.351053e-01 1.242700e-15 3 
    7.535734 2.583443e-01 1.364800e-15 3 
    7.566720 2.443273e-01 1.280200e-15 3 
    7.595799 2.670371e-01 1.388500e-15 3 
    7.597705 2.889142e-01 1.501500e-15 3 
    7.657894 2.667294e-01 1.364500e-15 3 
    7.719988 2.809659e-01 1.414300e-15 3 
    7.782082 2.825565e-01 1.399700e-15 3 
    7.844176 2.879450e-01 1.403900e-15 3 
    7.906271 2.928552e-01 1.405500e-15 3 
    7.968365 3.046059e-01 1.439200e-15 3 
    8.030459 2.937656e-01 1.366600e-15 3 
    8.092554 2.936328e-01 1.345100e-15 3 
    8.154648 3.281690e-01 1.480500e-15 3 
    8.216741 3.110858e-01 1.382300e-15 3 
    8.278836 3.031029e-01 1.326700e-15 3 
    8.340930 3.100552e-01 1.337000e-15 3 
    8.403025 3.091107e-01 1.313300e-15 3 
    8.465119 3.138392e-01 1.313900e-15 3 
    8.527213 3.245925e-01 1.339200e-15 3 
    8.589307 3.394197e-01 1.380200e-15 3 
    8.651402 3.443201e-01 1.380100e-15 3 
    8.713495 3.449273e-01 1.362900e-15 3 
    8.775590 3.478586e-01 1.355100e-15 3 
    8.837684 3.572768e-01 1.372300e-15 3 
    8.899778 3.629485e-01 1.374700e-15 3 
    8.961872 3.712969e-01 1.386900e-15 3 
    9.023966 3.787400e-01 1.395300e-15 3 
    9.086060 3.854562e-01 1.400700e-15 3 
    9.148155 3.969078e-01 1.422800e-15 3 
    9.210249 4.040673e-01 1.429000e-15 3 
    9.272344 4.100212e-01 1.430700e-15 3 
    9.334438 4.252029e-01 1.464000e-15 3 
    9.396532 4.416507e-01 1.500600e-15 3 
    9.458626 4.465526e-01 1.497400e-15 3 
    9.520720 4.662431e-01 1.543100e-15 3 
    9.582815 4.792625e-01 1.565700e-15 3 
    9.644909 4.960364e-01 1.599700e-15 3 
    9.707002 5.163265e-01 1.643900e-15 3 
    9.769098 5.628454e-01 1.769300e-15 3 
    9.831192 6.502125e-01 2.018200e-15 3 
    9.893286 6.106226e-01 1.871600e-15 3 
    9.955380 5.818063e-01 1.761100e-15 3 
   10.017470 5.882835e-01 1.758700e-15 3 
   10.079570 6.075206e-01 1.793900e-15 3 
   10.141659 6.186966e-01 1.804600e-15 3 
   10.203760 6.242839e-01 1.798800e-15 3 
   10.265850 6.415650e-01 1.826300e-15 3 
   10.327949 6.477147e-01 1.821700e-15 3 
   10.390041 6.514600e-01 1.810400e-15 3 
   10.452130 6.592693e-01 1.810400e-15 3 
   10.514230 6.694112e-01 1.816600e-15 3 
   10.576320 6.806220e-01 1.825400e-15 3 
   10.638420 6.926748e-01 1.836100e-15 3 
   10.700510 7.079592e-01 1.854900e-15 3 
   10.762600 7.138050e-01 1.848700e-15 3 
   10.824700 7.330413e-01 1.876800e-15 3 
   10.886791 7.376427e-01 1.867100e-15 3 
   10.948890 7.486393e-01 1.873500e-15 3 
   11.010980 7.610340e-01 1.883100e-15 3 
   11.073080 7.708685e-01 1.886100e-15 3 
   11.135170 7.721396e-01 1.868200e-15 3 
   11.197260 7.782670e-01 1.862200e-15 3 
   11.259360 8.009108e-01 1.895300e-15 3 
   11.321450 8.233549e-01 1.927100e-15 3 
   11.383550 8.415263e-01 1.948200e-15 3 
   11.445640 9.145296e-01 2.094300e-15 3 
   11.507740 9.154753e-01 2.073900e-15 3 
   11.569830 8.928080e-01 2.000900e-15 3 
   11.631920 8.793700e-01 1.949800e-15 3 
   11.694020 8.632122e-01 1.893700e-15 3 
   11.756110 8.505666e-01 1.846300e-15 3 
   11.818209 8.377411e-01 1.799400e-15 3 
   11.880299 8.301944e-01 1.764600e-15 3 
   11.942400 8.437454e-01 1.774800e-15 3 
   12.004490 8.483625e-01 1.766100e-15 3 
   12.066580 8.607525e-01 1.773500e-15 3 
   12.128680 8.651728e-01 1.764400e-15 3 
   12.190770 8.754903e-01 1.767300e-15 3 
   12.252870 8.852332e-01 1.768900e-15 3 
   12.314959 8.851280e-01 1.750900e-15 3 
   12.377051 8.897356e-01 1.742400e-15 3 
   12.439150 9.033796e-01 1.751500e-15 3 
   12.501240 9.500322e-01 1.823700e-15 3 
   12.563340 9.202453e-01 1.749100e-15 3 
   12.625430 9.146457e-01 1.721400e-15 3 
   12.687530 9.073534e-01 1.691000e-15 3 
   12.749620 9.152265e-01 1.689100e-15 3 
   12.811710 9.223569e-01 1.685800e-15 3 
   12.873810 9.466230e-01 1.713500e-15 3 
   12.935900 9.836099e-01 1.763400e-15 3 
   12.998000 1.142877e+00 2.029400e-15 3 
   13.060090 1.223072e+00 2.151200e-15 3 
   13.122180 1.029763e+00 1.794100e-15 3 
   13.184280 9.801425e-01 1.691600e-15 3 
   13.246370 9.614970e-01 1.643900e-15 3 
   13.308470 9.569544e-01 1.620900e-15 3 
   13.370559 9.735916e-01 1.633800e-15 3 
   13.432659 9.803106e-01 1.629900e-15 3 
   13.494750 9.968607e-01 1.642200e-15 3 
   13.556841 1.017817e+00 1.661400e-15 3 
   13.618941 1.033161e+00 1.671100e-15 3 
   13.681030 1.054769e+00 1.690600e-15 3 
   13.743130 1.066884e+00 1.694600e-15 3 
   13.805220 1.078261e+00 1.697300e-15 3 
   13.867320 1.096061e+00 1.709900e-15 3 
   13.929409 1.119803e+00 1.731400e-15 3 
   13.991500 1.129025e+00 1.730200e-15 3 
   14.053600 1.154277e+00 1.753300e-15 3 
   14.115691 1.165562e+00 1.754900e-15 3 
   14.177789 1.176711e+00 1.756200e-15 3 
   14.239880 1.180889e+00 1.747100e-15 3 
   14.301980 1.157257e+00 1.697300e-15 3 
   14.364070 1.116502e+00 1.623400e-15 3 
   14.426159 1.071996e+00 1.545300e-15 3 
   14.488261 1.073128e+00 1.533700e-15 3 
   14.541691 1.249522e+00 1.772700e-15 3 
   14.633380 1.272609e+00 1.782900e-15 3 
   14.725080 1.276033e+00 1.765500e-15 3 
   14.816770 1.296437e+00 1.771600e-15 3 
   14.908459 1.299345e+00 1.753800e-15 3 
   15.000150 1.329402e+00 1.772500e-15 3 
   15.091850 1.331888e+00 1.754300e-15 3 
   15.183541 1.363182e+00 1.773900e-15 3 
   15.275230 1.404974e+00 1.806400e-15 3 
   15.366930 1.574992e+00 2.000900e-15 3 
   15.458620 1.383471e+00 1.736800e-15 3 
   15.550309 1.439266e+00 1.785600e-15 3 
   15.642000 1.447807e+00 1.775200e-15 3 
   15.733700 1.494208e+00 1.810800e-15 3 
   15.825391 1.668535e+00 1.998700e-15 3 
   15.917080 1.636832e+00 1.938200e-15 3 
   16.008780 1.584927e+00 1.855300e-15 3 
   16.100470 1.583001e+00 1.832000e-15 3 
   16.192159 1.621621e+00 1.855500e-15 3 
   16.283859 1.646227e+00 1.862500e-15 3 
   16.375550 1.676438e+00 1.875500e-15 3 
   16.467239 1.708280e+00 1.889900e-15 3 
   16.558930 1.704964e+00 1.865400e-15 3 
   16.650631 1.783877e+00 1.930300e-15 3 
   16.742319 1.833103e+00 1.961900e-15 3 
   16.834009 1.837556e+00 1.945300e-15 3 
   16.925700 1.867941e+00 1.956100e-15 3 
   17.017400 1.863910e+00 1.930900e-15 3 
   17.109091 1.854583e+00 1.900700e-15 3 
   17.200781 1.923529e+00 1.950400e-15 3 
   17.292481 2.217406e+00 2.224600e-15 3 
   17.384170 2.230104e+00 2.213800e-15 3 
   17.475861 2.034409e+00 1.998400e-15 3 
   17.567561 2.020015e+00 1.963600e-15 3 
   17.659250 2.020574e+00 1.943800e-15 3 
   17.750941 2.058732e+00 1.960100e-15 3 
   17.842630 2.081646e+00 1.961600e-15 3 
   17.934330 2.105242e+00 1.963600e-15 3 
   18.026020 2.094655e+00 1.933900e-15 3 
   18.117709 2.101903e+00 1.921000e-15 3 
   18.209409 2.139924e+00 1.936100e-15 3 
   18.301100 2.168115e+00 1.942000e-15 3 
   18.392789 2.188541e+00 1.940800e-15 3 
   18.484489 2.190487e+00 1.923300e-15 3 
   18.576180 2.218599e+00 1.928800e-15 3 
   18.667870 2.278772e+00 1.961700e-15 3 
   18.759559 2.266254e+00 1.931900e-15 3 
   18.851259 2.349588e+00 1.983500e-15 3 
   18.942950 2.334583e+00 1.951800e-15 3 
   19.034639 2.379943e+00 1.970600e-15 3 
   19.126341 2.445730e+00 2.005700e-15 3 
   19.218031 2.405218e+00 1.953700e-15 3 
   19.309719 2.449849e+00 1.971100e-15 3 
   19.401409 2.379192e+00 1.896200e-15 3 
   19.493111 2.424535e+00 1.914200e-15 3 
   19.584800 2.384236e+00 1.864800e-15 3 
   19.676491 2.432295e+00 1.884700e-15 3 
   19.768191 2.393796e+00 1.837700e-15 3 
   19.859880 2.367409e+00 1.800700e-15 3 
   19.951570 2.423951e+00 1.826800e-15 3 
   20.043261 2.468511e+00 1.843400e-15 3 
   20.134961 2.454933e+00 1.816600e-15 3 
   20.226650 2.494934e+00 1.829500e-15 3 
   20.318341 2.440818e+00 1.773700e-15 3 
   20.410041 2.818094e+00 2.029500e-15 3 
   20.555241 2.310469e+00 1.640500e-15 3 
   20.730739 2.668259e+00 1.862600e-15 3 
   20.906339 2.576411e+00 1.768400e-15 3 
   21.082041 2.480637e+00 1.674400e-15 3 
   21.257830 2.713481e+00 1.801400e-15 3 
   21.433709 2.693332e+00 1.758800e-15 3 
   21.609689 2.585972e+00 1.661300e-15 3 
   21.785761 2.751843e+00 1.739400e-15 3 
   21.961930 2.896691e+00 1.801700e-15 3 
   22.138200 2.758446e+00 1.688500e-15 3 
   22.314559 2.686882e+00 1.618800e-15 3 
   22.491020 2.877421e+00 1.706500e-15 3 
   22.667570 2.986828e+00 1.743900e-15 3 
   22.844219 2.915101e+00 1.675800e-15 3 
   23.020969 2.858808e+00 1.618300e-15 3 
   23.197809 2.954021e+00 1.646800e-15 3 
   23.374750 3.069739e+00 1.685500e-15 3 
   23.551791 3.086832e+00 1.669500e-15 3 
   23.728920 3.001682e+00 1.599300e-15 3 
   23.906161 3.056025e+00 1.604200e-15 3 
   24.083481 3.113709e+00 1.610500e-15 3 
   24.260909 3.206451e+00 1.634300e-15 3 
   24.438441 3.106630e+00 1.560500e-15 3 
   24.616061 3.080248e+00 1.525000e-15 3 
   24.793780 3.200497e+00 1.561900e-15 3 
   24.971600 3.583719e+00 1.724100e-15 3 
   25.149509 3.289832e+00 1.560400e-15 3 
   25.327530 3.228588e+00 1.509900e-15 3 
   25.505641 3.224065e+00 1.486800e-15 3 
   25.683861 3.244211e+00 1.475400e-15 3 
   25.862169 3.849688e+00 1.726700e-15 3 
   26.040581 3.343544e+00 1.479200e-15 3 
   26.219091 3.419788e+00 1.492400e-15 3 
   26.397700 3.394301e+00 1.461300e-15 3 
   26.576409 3.374257e+00 1.433200e-15 3 
   26.755222 3.402635e+00 1.426000e-15 3 
   26.934131 3.429432e+00 1.418200e-15 3 
   27.113141 3.479334e+00 1.419900e-15 3 
   27.292250 3.487963e+00 1.404800e-15 3 
   27.471459 3.474552e+00 1.381200e-15 3 
   27.650781 3.428058e+00 1.345100e-15 3 
   27.830191 3.508832e+00 1.359100e-15 3 
   28.009700 3.626944e+00 1.386900e-15 3 
   28.189319 3.652420e+00 1.378900e-15 3 
   28.369041 3.555617e+00 1.325400e-15 3 
   28.548850 3.592682e+00 1.322400e-15 3 
   28.728769 3.567129e+00 1.296600e-15 3 
   28.908791 3.639553e+00 1.306500e-15 3 
   29.088922 3.627229e+00 1.286000e-15 3 
   29.269150 3.740564e+00 1.309900e-15 3 
   29.449472 3.617100e+00 1.251200e-15 3 
   29.629909 3.872849e+00 1.323400e-15 3 
   29.810441 3.711646e+00 1.253000e-15 3 
   29.991078 3.735477e+00 1.245900e-15 3 
   30.171819 3.686265e+00 1.214800e-15 3 
   30.352659 3.865707e+00 1.258800e-15 3 
   30.533609 3.957619e+00 1.273500e-15 3 
   30.714659 3.847146e+00 1.223400e-15 3 
   30.895809 3.818522e+00 1.200100e-15 3 
   31.077069 3.897261e+00 1.210600e-15 3 
   31.258441 3.821725e+00 1.173400e-15 3 
   31.439909 3.755848e+00 1.139900e-15 3 
   31.621481 3.850351e+00 1.155200e-15 3 
   31.803150 3.997212e+00 1.185600e-15 3 
   31.984941 3.921640e+00 1.150000e-15 3 
   32.166822 3.883590e+00 1.126000e-15 3 
   32.348819 4.038933e+00 1.157900e-15 3 
   32.530909 3.844306e+00 1.089800e-15 3 
   32.713119 4.024470e+00 1.128200e-15 3 
   32.895431 3.976752e+00 1.102500e-15 3 
   33.077838 3.920316e+00 1.074900e-15 3 
   33.260359 4.058099e+00 1.100500e-15 3 
   33.442991 4.827532e+00 1.294900e-15 3 
   33.625728 4.343356e+00 1.152400e-15 3 
   33.808572 4.163258e+00 1.092700e-15 3 
   33.991519 4.577787e+00 1.188600e-15 3 
   34.174569 4.168629e+00 1.070800e-15 3 
   34.357731 4.034791e+00 1.025400e-15 3 
   34.541013 4.239019e+00 1.065900e-15 3 
   34.724381 4.327554e+00 1.076700e-15 3 
   34.907872 4.604124e+00 1.133500e-15 3 
