# NGC 7585       
# 
# An Atlas of Galaxy Spectral Energy Distributions from the Ultraviolet to the Mid-Infrared
# Brown et al. (2014)
# http://dx.doi.org/10.5072/03/529D3551F0117
# http://dx.doi.org/10.17909/t9-5bxk-dh29
# 
# The Spectral Energy Distributions of Active Galactic Nuclei
# Brown et al. (2019)
# http://dx.doi.org/10.17909/t9-3dbt-8734
# 
# Column 1: Observed wavelength (um)
# Column 2: f_nu (Jy)
# Column 3: f_lam (erg/s/cm2/A)
# Column 4: Source (0 = model, 1 = Optical Spectrun, 2 = Akari, 3 = Spitzer IRS)
# 
    0.010328 2.118525e-09 5.958300e-18 0 
    0.010520 2.432388e-09 6.593600e-18 0 
    0.010715 2.897223e-09 7.570400e-18 0 
    0.010940 3.499708e-09 8.772400e-18 0 
    0.011117 5.058032e-09 1.227800e-17 0 
    0.011535 6.776997e-09 1.528000e-17 0 
    0.011940 8.590407e-09 1.807700e-17 0 
    0.012246 2.523403e-08 5.048000e-17 0 
    0.012647 3.154840e-08 5.917300e-17 0 
    0.012853 3.459445e-08 6.282300e-17 0 
    0.012942 3.655977e-08 6.548200e-17 0 
    0.013243 4.158833e-08 7.114100e-17 0 
    0.013366 4.764356e-08 8.000600e-17 0 
    0.013552 5.140490e-08 8.396900e-17 0 
    0.013868 6.368339e-08 9.933900e-17 0 
    0.014158 7.128634e-08 1.066900e-16 0 
    0.014454 1.415699e-07 2.032900e-16 0 
    0.014859 2.672882e-07 3.631800e-16 0 
    0.015276 3.041020e-07 3.909500e-16 0 
    0.015668 3.475594e-07 4.247400e-16 0 
    0.016069 3.971743e-07 4.614500e-16 0 
    0.016406 4.385372e-07 4.887900e-16 0 
    0.016788 4.977335e-07 5.298100e-16 0 
    0.017219 5.597806e-07 5.664000e-16 0 
    0.017498 6.095023e-07 5.972000e-16 0 
    0.017906 6.792009e-07 6.355100e-16 0 
    0.018197 7.328256e-07 6.639300e-16 0 
    0.018408 7.727012e-07 6.841000e-16 0 
    0.018836 8.569953e-07 7.246400e-16 0 
    0.019320 9.638630e-07 7.746800e-16 0 
    0.019634 1.039960e-06 8.093200e-16 0 
    0.020045 1.140274e-06 8.513700e-16 0 
    0.020417 1.244462e-06 8.956100e-16 0 
    0.020749 1.330439e-06 9.270899e-16 0 
    0.021232 1.422267e-06 9.465000e-16 0 
    0.021878 1.667287e-06 1.045000e-15 0 
    0.022284 1.811346e-06 1.094300e-15 0 
    0.022542 1.892320e-06 1.117200e-15 0 
    0.022961 2.051013e-06 1.167100e-15 0 
    0.023281 3.184279e-06 1.762500e-15 0 
    0.023659 5.395040e-06 2.891500e-15 0 
    0.024266 7.447240e-06 3.794200e-15 0 
    0.024889 7.447589e-06 3.606800e-15 0 
    0.025468 8.317457e-06 3.847000e-15 0 
    0.026002 6.982576e-06 3.098300e-15 0 
    0.026303 8.649942e-06 3.750800e-15 0 
    0.026730 9.462266e-06 3.973000e-15 0 
    0.027227 9.817409e-06 3.973000e-15 0 
    0.027733 1.016237e-05 3.963900e-15 0 
    0.028249 1.042329e-05 3.918500e-15 0 
    0.028708 1.083949e-05 3.945700e-15 0 
    0.029309 1.076463e-05 3.759400e-15 0 
    0.029923 1.127231e-05 3.776800e-15 0 
    0.030479 1.111729e-05 3.590200e-15 0 
    0.031189 1.188511e-05 3.665400e-15 0 
    0.032211 1.294203e-05 3.742100e-15 0 
    0.033189 1.355151e-05 3.690800e-15 0 
    0.034198 1.406055e-05 3.606800e-15 0 
    0.035237 1.452105e-05 3.508500e-15 0 
    0.036141 1.517032e-05 3.484300e-15 0 
    0.037068 1.610646e-05 3.516600e-15 0 
    0.037931 1.648100e-05 3.436500e-15 0 
    0.038994 1.636802e-05 3.229400e-15 0 
    0.039994 1.765977e-05 3.312200e-15 0 
    0.041020 1.853485e-05 3.304600e-15 0 
    0.041879 1.887962e-05 3.229400e-15 0 
    0.042658 1.892372e-05 3.119800e-15 0 
    0.043551 1.918628e-05 3.034700e-15 0 
    0.044668 2.004408e-05 3.013800e-15 0 
    0.045604 2.032377e-05 2.931700e-15 0 
    0.046559 2.037098e-05 2.819200e-15 0 
    0.047534 2.074957e-05 2.755000e-15 0 
    0.048529 2.138006e-05 2.723500e-15 0 
    0.049545 2.123240e-05 2.594900e-15 0 
    0.050582 2.218168e-05 2.600900e-15 0 
    0.051168 2.192800e-05 2.512600e-15 0 
    0.051761 2.398867e-05 2.686100e-15 0 
    0.052602 2.409939e-05 2.612900e-15 0 
    0.053580 2.393304e-05 2.501000e-15 0 
    0.054576 2.322765e-05 2.339500e-15 0 
    0.055590 2.328090e-05 2.260100e-15 0 
    0.056624 2.488819e-05 2.328700e-15 0 
    0.057677 2.588234e-05 2.334100e-15 0 
    0.058749 2.600203e-05 2.260100e-15 0 
    0.059704 2.642414e-05 2.223900e-15 0 
    0.060674 2.558650e-05 2.085100e-15 0 
    0.061659 2.322666e-05 1.832800e-15 0 
    0.062661 2.728979e-05 2.085100e-15 0 
    0.063680 2.697751e-05 1.995800e-15 0 
    0.064714 2.805336e-05 2.009600e-15 0 
    0.065766 2.805447e-05 1.945900e-15 0 
    0.066527 2.747858e-05 1.862600e-15 0 
    0.067298 2.870795e-05 1.901600e-15 0 
    0.068234 2.924202e-05 1.884200e-15 0 
    0.069343 2.818394e-05 1.758400e-15 0 
    0.070307 2.964856e-05 1.799400e-15 0 
    0.071285 2.805355e-05 1.656200e-15 0 
    0.072444 3.040943e-05 1.738300e-15 0 
    0.073451 3.076077e-05 1.710500e-15 0 
    0.074302 3.097346e-05 1.683100e-15 0 
    0.075336 3.083128e-05 1.629700e-15 0 
    0.076384 3.097350e-05 1.592600e-15 0 
    0.077446 2.870787e-05 1.435900e-15 0 
    0.078343 3.133258e-05 1.531500e-15 0 
    0.079433 3.054899e-05 1.452500e-15 0 
    0.080353 3.155128e-05 1.466000e-15 0 
    0.081470 3.221112e-05 1.455900e-15 0 
    0.082414 3.243439e-05 1.432600e-15 0 
    0.083560 3.288418e-05 1.412900e-15 0 
    0.084528 3.026853e-05 1.270900e-15 0 
    0.085507 3.303799e-05 1.355600e-15 0 
    0.086497 3.296201e-05 1.321700e-15 0 
    0.087498 3.357367e-05 1.315600e-15 0 
    0.088512 3.388367e-05 1.297500e-15 0 
    0.089536 3.411905e-05 1.276800e-15 0 
    0.090573 3.435612e-05 1.256400e-15 0 
    0.091622 3.435626e-05 1.227800e-15 0 
    0.092683 3.499336e-05 1.222100e-15 0 
    0.093541 6.123484e-05 2.099500e-15 0 
    0.094624 8.933108e-05 2.993100e-15 0 
    0.095719 1.174890e-04 3.847000e-15 0 
    0.096605 1.345843e-04 4.326300e-15 0 
    0.097724 1.482507e-04 4.657100e-15 0 
    0.098628 7.709030e-05 2.377500e-15 0 
    0.099770 1.336597e-04 4.028300e-15 0 
    0.100693 1.309158e-04 3.873600e-15 0 
    0.101625 1.555962e-04 4.519800e-15 0 
    0.102802 1.584885e-04 4.499000e-15 0 
    0.103753 1.054401e-04 2.938500e-15 0 
    0.104713 1.435477e-04 3.927500e-15 0 
    0.105682 1.896703e-04 5.094700e-15 0 
    0.106660 1.870690e-04 4.933100e-15 0 
    0.107647 1.667264e-04 4.316400e-15 0 
    0.108893 1.832329e-04 4.635800e-15 0 
    0.109901 1.584905e-04 3.936600e-15 0 
    0.110918 1.914275e-04 4.667900e-15 0 
    0.111686 1.853518e-04 4.457800e-15 0 
    0.112720 1.845009e-04 4.356300e-15 0 
    0.113763 1.698252e-04 3.936600e-15 0 
    0.114815 1.958829e-04 4.457800e-15 0 
    0.115878 1.892367e-04 4.227900e-15 0 
    0.116950 1.936433e-04 4.247400e-15 0 
    0.117761 1.945354e-04 4.208400e-15 0 
    0.118850 1.499685e-04 3.185100e-15 0 
    0.119950 1.923100e-04 4.009800e-15 0 
    0.120781 1.674951e-04 3.444500e-15 0 
    0.121899 1.465530e-04 2.958800e-15 0 
    0.123027 1.101522e-04 2.183300e-15 0 
    0.123880 1.686553e-04 3.297000e-15 0 
    0.125026 2.009065e-04 3.855800e-15 0 
    0.125893 2.098942e-04 3.973000e-15 0 
    0.127057 2.079657e-04 3.864700e-15 0 
    0.127938 1.999858e-04 3.665400e-15 0 
    0.129122 2.233558e-04 4.019000e-15 0 
    0.130017 2.285590e-04 4.056200e-15 0 
    0.130918 2.027663e-04 3.549100e-15 0 
    0.132130 2.055894e-04 3.532800e-15 0 
    0.133045 2.317352e-04 3.927500e-15 0 
    0.133968 2.254257e-04 3.768100e-15 0 
    0.135207 2.137955e-04 3.508500e-15 0 
    0.136144 2.338832e-04 3.785500e-15 0 
    0.137088 2.306730e-04 3.682300e-15 0 
    0.138038 2.182692e-04 3.436500e-15 0 
    0.138995 2.218213e-04 3.444500e-15 0 
    0.140281 2.249020e-04 3.428600e-15 0 
    0.141254 1.892313e-04 2.845200e-15 0 
    0.142233 1.896718e-04 2.812700e-15 0 
    0.143219 2.187776e-04 3.199800e-15 0 
    0.144212 2.177734e-04 3.141400e-15 0 
    0.145211 2.238725e-04 3.185100e-15 0 
    0.145881 2.290858e-04 3.229400e-15 0 
    0.146555 2.312075e-04 3.229400e-15 0 
    0.147231 2.264665e-04 3.134200e-15 0 
    0.148252 2.182700e-04 2.979300e-15 0 
    0.149279 2.207995e-04 2.972500e-15 0 
    0.150314 2.243840e-04 2.979300e-15 0 
    0.151356 2.249018e-04 2.945200e-15 0 
    0.152405 2.187778e-04 2.825700e-15 0 
    0.153109 2.051129e-04 2.624900e-15 0 
    0.153462 2.123242e-04 2.704700e-15 0 
    0.154170 2.113485e-04 2.667600e-15 0 
    0.155239 1.918694e-04 2.388500e-15 0 
    0.156315 1.883646e-04 2.312700e-15 0 
    0.157398 1.866400e-04 2.260100e-15 0 
    0.158489 1.999872e-04 2.388500e-15 0 
    0.159221 2.113456e-04 2.501000e-15 0 
    0.160325 2.182707e-04 2.547500e-15 0 
    0.161436 2.233564e-04 2.571100e-15 0 
    0.162555 2.192762e-04 2.489500e-15 0 
    0.163305 2.192775e-04 2.466700e-15 0 
    0.164437 2.152797e-04 2.388500e-15 0 
    0.165577 2.264632e-04 2.478100e-15 0 
    0.166341 2.296093e-04 2.489500e-15 0 
    0.167494 2.223298e-04 2.377500e-15 0 
    0.168655 2.376823e-04 2.506800e-15 0 
    0.169044 2.187769e-04 2.296800e-15 0 
    0.169824 2.685310e-04 2.793300e-15 0 
    0.170608 2.728984e-04 2.812700e-15 0 
    0.171396 2.576327e-04 2.631000e-15 0 
    0.172584 2.588238e-04 2.606900e-15 0 
    0.173380 2.679103e-04 2.673700e-15 0 
    0.174582 2.747874e-04 2.704700e-15 0 
    0.175388 3.006063e-04 2.931700e-15 0 
    0.176604 2.957962e-04 2.845200e-15 0 
    0.177419 3.250891e-04 3.098300e-15 0 
    0.178649 2.917393e-04 2.742300e-15 0 
    0.179473 3.140529e-04 2.925000e-15 0 
    0.180717 3.243329e-04 2.979300e-15 0 
    0.181552 3.715378e-04 3.381600e-15 0 
    0.182810 3.605741e-04 3.236800e-15 0 
    0.183654 3.572779e-04 3.177800e-15 0 
    0.184502 3.556375e-04 3.134200e-15 0 
    0.185780 3.483404e-04 3.027800e-15 0 
    0.186638 3.097416e-04 2.667600e-15 0 
    0.187499 3.451369e-04 2.945200e-15 0 
    0.188799 3.890421e-04 3.274300e-15 0 
    0.189671 3.908453e-04 3.259300e-15 0 
    0.190546 3.863632e-04 3.192400e-15 0 
    0.191867 4.111515e-04 3.350600e-15 0 
    0.192753 4.120967e-04 3.327500e-15 0 
    0.193642 4.236437e-04 3.389400e-15 0 
    0.194984 3.971946e-04 3.134200e-15 0 
    0.195884 3.265845e-04 2.553400e-15 0 
    0.196789 4.655887e-04 3.606800e-15 0 
    0.197697 4.666642e-04 3.582000e-15 0 
    0.199067 5.333356e-04 4.037600e-15 0 
    0.199986 5.187941e-04 3.891500e-15 0 
    0.200909 5.345595e-04 3.973000e-15 0 
    0.201837 5.358020e-04 3.945700e-15 0 
    0.202768 5.164164e-04 3.768100e-15 0 
    0.203704 5.236018e-04 3.785500e-15 0 
    0.205116 4.909027e-04 3.500400e-15 0 
    0.206063 5.623378e-04 3.973000e-15 0 
    0.207014 6.137663e-04 4.296600e-15 0 
    0.207970 5.834486e-04 4.046900e-15 0 
    0.208930 5.701646e-04 3.918500e-15 0 
    0.209894 6.652672e-04 4.530200e-15 0 
    0.210378 8.222419e-04 5.573400e-15 0 
    0.210863 8.770070e-04 5.917300e-15 0 
    0.211836 8.279344e-04 5.535000e-15 0 
    0.212814 7.870460e-04 5.213400e-15 0 
    0.213796 8.511270e-04 5.586200e-15 0 
    0.214783 8.147019e-04 5.298100e-15 0 
    0.215774 7.395960e-04 4.765600e-15 0 
    0.217270 8.891926e-04 5.650900e-15 0 
    0.218273 9.015663e-04 5.677000e-15 0 
    0.219281 8.241464e-04 5.141900e-15 0 
    0.220293 8.413959e-04 5.201400e-15 0 
    0.221309 9.571870e-04 5.863000e-15 0 
    0.222331 1.009251e-03 6.125200e-15 0 
    0.223357 9.749847e-04 5.863000e-15 0 
    0.223872 8.260392e-04 4.944500e-15 0 
    0.224905 8.810418e-04 5.225400e-15 0 
    0.225944 1.099002e-03 6.458300e-15 0 
    0.226986 1.042303e-03 6.069000e-15 0 
    0.228034 8.749784e-04 5.048000e-15 0 
    0.229087 8.629778e-04 4.933100e-15 0 
    0.230144 9.484491e-04 5.372000e-15 0 
    0.231207 1.132765e-03 6.357100e-15 0 
    0.232274 9.937274e-04 5.525700e-15 0 
    0.233346 1.138648e-03 6.273500e-15 0 
    0.234423 1.043561e-03 5.696900e-15 0 
    0.235505 8.140432e-04 4.403200e-15 0 
    0.236048 8.085520e-04 4.353400e-15 0 
    0.237137 6.206355e-04 3.311000e-15 0 
    0.238232 1.006844e-03 5.322100e-15 0 
    0.239332 6.746798e-04 3.533600e-15 0 
    0.240436 8.476604e-04 4.398900e-15 0 
    0.241546 5.615072e-04 2.887200e-15 0 
    0.242103 6.829883e-04 3.495700e-15 0 
    0.243220 6.847698e-04 3.472700e-15 0 
    0.244343 7.756678e-04 3.897600e-15 0 
    0.245471 1.166295e-03 5.806700e-15 0 
    0.246604 1.163971e-03 5.742000e-15 0 
    0.247172 1.345880e-03 6.608900e-15 0 
    0.248313 1.400037e-03 6.811800e-15 0 
    0.249460 1.307002e-03 6.300800e-15 0 
    0.250611 1.175998e-03 5.617300e-15 0 
    0.251189 9.385936e-04 4.462700e-15 0 
    0.252348 9.945042e-04 4.685200e-15 0 
    0.253513 1.434652e-03 6.696800e-15 0 
    0.254097 8.068939e-04 3.749200e-15 0 
    0.254683 6.696933e-04 3.097400e-15 0 
    0.255270 7.160520e-04 3.296600e-15 0 
    0.256448 9.640137e-04 4.397500e-15 0 
    0.257632 1.028558e-03 4.648900e-15 0 
    0.258226 1.564195e-03 7.037400e-15 0 
    0.259418 1.274775e-03 5.682700e-15 0 
    0.260615 1.568820e-03 6.929400e-15 0 
    0.261818 1.457847e-03 6.380200e-15 0 
    0.262422 1.351390e-03 5.887100e-15 0 
    0.263633 1.210384e-03 5.224500e-15 0 
    0.264850 1.104231e-03 4.722600e-15 0 
    0.265461 1.479579e-03 6.298800e-15 0 
    0.266686 2.194215e-03 9.255500e-15 0 
    0.267917 2.926929e-03 1.223300e-14 0 
    0.268534 3.797340e-03 1.579800e-14 0 
    0.269774 2.628014e-03 1.083300e-14 0 
    0.270396 2.969647e-03 1.218500e-14 0 
    0.271644 3.348611e-03 1.361400e-14 0 
    0.272898 2.588196e-03 1.042600e-14 0 
    0.273527 3.112139e-03 1.247900e-14 0 
    0.274789 2.394491e-03 9.513400e-15 0 
    0.275423 2.095522e-03 8.287300e-15 0 
    0.276694 2.549382e-03 9.989800e-15 0 
    0.277971 1.543761e-03 5.993800e-15 0 
    0.278612 1.998291e-03 7.722900e-15 0 
    0.279898 2.528177e-03 9.681200e-15 0 
    0.280543 2.753341e-03 1.049500e-14 0 
    0.281838 1.811462e-03 6.841500e-15 0 
    0.282488 8.111616e-04 3.049500e-15 0 
    0.283792 9.982941e-04 3.718600e-15 0 
    0.285102 2.602605e-03 9.605700e-15 0 
    0.285759 3.585068e-03 1.317100e-14 0 
    0.287078 3.424842e-03 1.246700e-14 0 
    0.287740 2.746094e-03 9.950300e-15 0 
    0.289068 1.904869e-03 6.838900e-15 0 
    0.289734 3.523205e-03 1.259100e-14 0 
    0.291072 4.416605e-03 1.563900e-14 0 
    0.291743 4.160655e-03 1.466500e-14 0 
    0.293089 4.845398e-03 1.692200e-14 0 
    0.294442 6.463771e-03 2.236700e-14 0 
    0.296483 5.803887e-03 1.980800e-14 0 
    0.298538 5.507624e-03 1.853900e-14 0 
    0.300608 5.836988e-03 1.937800e-14 0 
    0.302691 6.031771e-03 1.975000e-14 0 
    0.304789 6.161194e-03 1.989700e-14 0 
    0.306902 6.590393e-03 2.099100e-14 0 
    0.308319 6.935622e-03 2.188800e-14 0 
    0.310456 7.591441e-03 2.362900e-14 0 
    0.312608 7.595743e-03 2.331800e-14 0 
    0.314775 8.646009e-03 2.617800e-14 0 
    0.316957 8.185958e-03 2.444500e-14 0 
    0.318420 8.322197e-03 2.462400e-14 0 
    0.320627 9.172651e-03 2.676800e-14 0 
    0.322849 8.179739e-03 2.354300e-14 0 
    0.325087 9.119967e-03 2.588900e-14 0 
    0.326588 7.928017e-03 2.229900e-14 0 
    0.328852 1.080030e-02 2.996100e-14 0 
    0.331131 1.263836e-02 3.457900e-14 0 
    0.332660 1.255653e-02 3.404000e-14 0 
    0.334966 1.208194e-02 3.230400e-14 0 
    0.335738 1.148729e-02 3.057300e-14 0 
    0.336512 1.143690e-02 3.029900e-14 0 
    0.337287 1.254270e-02 3.307600e-14 0 
    0.338065 1.165432e-02 3.059200e-14 0 
    0.338844 1.366378e-02 3.570200e-14 0 
    0.339625 1.329391e-02 3.457600e-14 0 
    0.340408 8.846097e-03 2.290200e-14 0 
    0.341193 9.927284e-03 2.558300e-14 0 
    0.341979 1.354940e-02 3.475700e-14 0 
    0.342768 1.285339e-02 3.282000e-14 0 
    0.343558 1.175167e-02 2.986900e-14 0 
    0.344350 1.524741e-02 3.857600e-14 0 
    0.345144 1.248225e-02 3.143500e-14 0 
    0.345939 1.234156e-02 3.093800e-14 0 
    0.346737 1.331870e-02 3.323400e-14 0 
    0.347536 1.518986e-02 3.772900e-14 0 
    0.348337 1.173952e-02 2.902500e-14 0 
    0.349140 1.299400e-02 3.197900e-14 0 
    0.349945 1.431616e-02 3.507100e-14 0 
    0.350752 1.348745e-02 3.288900e-14 0 
    0.351560 1.479178e-02 3.590400e-14 0 
    0.352371 1.393507e-02 3.366900e-14 0 
    0.353183 1.507295e-02 3.625100e-14 0 
    0.353997 1.286138e-02 3.079000e-14 0 
    0.354813 1.634501e-02 3.895000e-14 0 
    0.355631 1.378729e-02 3.270400e-14 0 
    0.356451 1.594315e-02 3.764400e-14 0 
    0.357273 1.308181e-02 3.074600e-14 0 
    0.358096 1.647235e-02 3.853700e-14 0 
    0.358922 1.737205e-02 4.045500e-14 0 
    0.359749 1.621581e-02 3.758900e-14 0 
    0.360579 1.592364e-02 3.674200e-14 0 
    0.361410 1.270949e-02 2.919100e-14 0 
    0.362243 1.403529e-02 3.208800e-14 0 
    0.363078 1.040676e-02 2.368300e-14 0 
    0.363915 1.536103e-02 3.479700e-14 0 
    0.364754 1.764050e-02 3.977700e-14 0 
    0.365595 1.347735e-02 3.025000e-14 0 
    0.366437 1.311295e-02 2.929700e-14 0 
    0.367282 2.073937e-02 4.612300e-14 0 
    0.368129 1.686127e-02 3.732600e-14 0 
    0.368978 1.790576e-02 3.945600e-14 0 
    0.369828 1.828469e-02 4.010600e-14 0 
    0.370681 2.260394e-02 4.935200e-14 0 
    0.371535 1.991938e-02 4.329100e-14 0 
    0.372392 1.938087e-02 4.192700e-14 0 
    0.373250 1.830096e-02 3.940900e-14 0 
    0.374111 2.044429e-02 4.382200e-14 0 
    0.374973 2.141223e-02 4.568600e-14 0 
    0.375837 1.926462e-02 4.091500e-14 0 
    0.376704 1.577095e-02 3.334100e-14 0 
    0.377572 1.887788e-02 3.972600e-14 0 
    0.378443 1.143032e-02 2.394300e-14 0 
    0.379315 1.493329e-02 3.113700e-14 0 
    0.379730 1.071608e-02 2.229500e-14 1 
    0.380005 1.513881e-02 3.145100e-14 1 
    0.380280 1.641597e-02 3.405500e-14 1 
    0.380555 1.782905e-02 3.693300e-14 1 
    0.380830 1.782485e-02 3.687100e-14 1 
    0.381105 1.741537e-02 3.597200e-14 1 
    0.381380 1.965912e-02 4.054800e-14 1 
    0.381655 2.019486e-02 4.159300e-14 1 
    0.381930 1.897435e-02 3.902300e-14 1 
    0.382205 1.824548e-02 3.747000e-14 1 
    0.382480 1.917094e-02 3.931400e-14 1 
    0.382755 2.246404e-02 4.600100e-14 1 
    0.383030 2.194273e-02 4.486900e-14 1 
    0.383305 1.818316e-02 3.712800e-14 1 
    0.383580 1.798561e-02 3.667200e-14 1 
    0.383855 1.688177e-02 3.437200e-14 1 
    0.384130 1.565076e-02 3.182000e-14 1 
    0.384405 1.375269e-02 2.792100e-14 1 
    0.384680 1.760009e-02 3.568100e-14 1 
    0.384955 1.848329e-02 3.741800e-14 1 
    0.385230 1.973303e-02 3.989100e-14 1 
    0.385505 1.894681e-02 3.824700e-14 1 
    0.385780 2.005929e-02 4.043500e-14 1 
    0.386055 2.034822e-02 4.095900e-14 1 
    0.386330 2.021006e-02 4.062300e-14 1 
    0.386605 1.738559e-02 3.489600e-14 1 
    0.386880 1.731304e-02 3.470100e-14 1 
    0.387155 1.748305e-02 3.499200e-14 1 
    0.387430 1.529890e-02 3.057700e-14 1 
    0.387705 1.200667e-02 2.396300e-14 1 
    0.387980 1.225051e-02 2.441500e-14 1 
    0.388255 1.351603e-02 2.689900e-14 1 
    0.388530 1.210261e-02 2.405200e-14 1 
    0.388805 1.333515e-02 2.646400e-14 1 
    0.389080 1.574790e-02 3.120800e-14 1 
    0.389355 1.841554e-02 3.644300e-14 1 
    0.389630 2.037716e-02 4.026800e-14 1 
    0.389905 2.134444e-02 4.212000e-14 1 
    0.390180 2.010538e-02 3.961900e-14 1 
    0.390455 1.866863e-02 3.673600e-14 1 
    0.390730 2.173358e-02 4.270700e-14 1 
    0.391005 2.119800e-02 4.159600e-14 1 
    0.391280 1.628372e-02 3.190800e-14 1 
    0.391555 1.897482e-02 3.712900e-14 1 
    0.391830 1.902092e-02 3.716700e-14 1 
    0.392105 1.585894e-02 3.094500e-14 1 
    0.392380 1.656991e-02 3.228700e-14 1 
    0.392655 1.926916e-02 3.749400e-14 1 
    0.392930 1.997138e-02 3.880600e-14 1 
    0.393205 1.881864e-02 3.651500e-14 1 
    0.393480 1.928106e-02 3.736000e-14 1 
    0.393755 1.791884e-02 3.467200e-14 1 
    0.394030 2.217573e-02 4.284900e-14 1 
    0.394305 2.188901e-02 4.223600e-14 1 
    0.394580 2.214635e-02 4.267300e-14 1 
    0.394855 2.160140e-02 4.156500e-14 1 
    0.395130 2.410820e-02 4.632400e-14 1 
    0.395405 2.629621e-02 5.045800e-14 1 
    0.395680 2.255129e-02 4.321200e-14 1 
    0.395955 2.544336e-02 4.868600e-14 1 
    0.396230 2.894681e-02 5.531300e-14 1 
    0.396505 2.563410e-02 4.891500e-14 1 
    0.396780 2.669825e-02 5.087500e-14 1 
    0.397055 2.497744e-02 4.753000e-14 1 
    0.397330 2.127103e-02 4.042100e-14 1 
    0.397605 1.773820e-02 3.366100e-14 1 
    0.397880 1.229213e-02 2.329400e-14 1 
    0.398155 1.086864e-02 2.056800e-14 1 
    0.398430 1.191657e-02 2.252000e-14 1 
    0.398705 1.423485e-02 2.686400e-14 1 
    0.398980 1.749762e-02 3.297600e-14 1 
    0.399255 2.392237e-02 4.502200e-14 1 
    0.399530 2.550848e-02 4.794100e-14 1 
    0.399805 2.718201e-02 5.101600e-14 1 
    0.400080 2.609257e-02 4.890400e-14 1 
    0.400355 2.483015e-02 4.647400e-14 1 
    0.400630 2.388359e-02 4.464100e-14 1 
    0.400905 2.272810e-02 4.242300e-14 1 
    0.401180 1.850175e-02 3.448700e-14 1 
    0.401455 1.430403e-02 2.662600e-14 1 
    0.401730 1.289697e-02 2.397400e-14 1 
    0.402005 1.442028e-02 2.676900e-14 1 
    0.402280 1.727904e-02 3.203200e-14 1 
    0.402555 2.239538e-02 4.146000e-14 1 
    0.402830 2.816826e-02 5.207600e-14 1 
    0.403105 2.839414e-02 5.242200e-14 1 
    0.403380 3.107485e-02 5.729300e-14 1 
    0.403655 3.090650e-02 5.690500e-14 1 
    0.403930 3.122165e-02 5.740700e-14 1 
    0.404205 3.466851e-02 6.365800e-14 1 
    0.404480 3.556643e-02 6.521800e-14 1 
    0.404755 3.419498e-02 6.261800e-14 1 
    0.405030 3.394071e-02 6.206800e-14 1 
    0.405305 3.582611e-02 6.542700e-14 1 
    0.405580 3.693629e-02 6.736300e-14 1 
    0.405855 3.684967e-02 6.711400e-14 1 
    0.406130 3.587644e-02 6.525300e-14 1 
    0.406405 3.933571e-02 7.144800e-14 1 
    0.406680 3.993860e-02 7.244500e-14 1 
    0.406955 3.783083e-02 6.852900e-14 1 
    0.407230 3.665148e-02 6.630300e-14 1 
    0.407505 3.931810e-02 7.103100e-14 1 
    0.407780 3.929636e-02 7.089600e-14 1 
    0.408055 3.576777e-02 6.444300e-14 1 
    0.408330 3.550699e-02 6.388700e-14 1 
    0.408605 3.701571e-02 6.651200e-14 1 
    0.408880 3.976834e-02 7.136200e-14 1 
    0.409155 4.016113e-02 7.197000e-14 1 
    0.409430 3.721563e-02 6.660200e-14 1 
    0.409705 3.473153e-02 6.207300e-14 1 
    0.409980 3.679910e-02 6.568000e-14 1 
    0.410255 3.732480e-02 6.652900e-14 1 
    0.410530 3.702542e-02 6.590700e-14 1 
    0.410805 3.673640e-02 6.530500e-14 1 
    0.411080 3.475550e-02 6.170100e-14 1 
    0.411355 3.321142e-02 5.888100e-14 1 
    0.411630 3.697277e-02 6.546200e-14 1 
    0.411905 3.606132e-02 6.376300e-14 1 
    0.412180 3.602001e-02 6.360500e-14 1 
    0.412455 3.650473e-02 6.437500e-14 1 
    0.412730 3.727512e-02 6.564600e-14 1 
    0.413005 3.946493e-02 6.941000e-14 1 
    0.413280 4.030490e-02 7.079300e-14 1 
    0.413555 3.958950e-02 6.944400e-14 1 
    0.413830 3.892860e-02 6.819400e-14 1 
    0.414105 3.976061e-02 6.955900e-14 1 
    0.414380 3.961539e-02 6.921300e-14 1 
    0.414655 3.653928e-02 6.375400e-14 1 
    0.414930 3.310597e-02 5.768700e-14 1 
    0.415205 3.504679e-02 6.098800e-14 1 
    0.415480 3.410064e-02 5.926300e-14 1 
    0.415755 3.464592e-02 6.013100e-14 1 
    0.416030 3.744606e-02 6.490500e-14 1 
    0.416305 3.656780e-02 6.329900e-14 1 
    0.416580 3.778462e-02 6.531900e-14 1 
    0.416855 3.800366e-02 6.561100e-14 1 
    0.417130 3.879853e-02 6.689500e-14 1 
    0.417405 3.970283e-02 6.836400e-14 1 
    0.417680 3.960396e-02 6.810400e-14 1 
    0.417955 4.156895e-02 7.138900e-14 1 
    0.418230 4.099222e-02 7.030600e-14 1 
    0.418505 3.900160e-02 6.680400e-14 1 
    0.418780 3.983213e-02 6.813700e-14 1 
    0.419055 4.065187e-02 6.944800e-14 1 
    0.419330 3.913208e-02 6.676400e-14 1 
    0.419605 4.095467e-02 6.978200e-14 1 
    0.419880 3.955508e-02 6.730900e-14 1 
    0.420155 3.842592e-02 6.530200e-14 1 
    0.420430 4.055024e-02 6.882200e-14 1 
    0.420705 4.047941e-02 6.861200e-14 1 
    0.420980 4.192237e-02 7.096500e-14 1 
    0.421255 4.301409e-02 7.271800e-14 1 
    0.421530 4.306376e-02 7.270700e-14 1 
    0.421805 4.125418e-02 6.956100e-14 1 
    0.422080 3.932932e-02 6.622900e-14 1 
    0.422355 3.938177e-02 6.623100e-14 1 
    0.422630 3.907942e-02 6.563700e-14 1 
    0.422905 3.885606e-02 6.517700e-14 1 
    0.423180 4.067951e-02 6.814700e-14 1 
    0.423455 4.094160e-02 6.849700e-14 1 
    0.423730 4.204514e-02 7.025200e-14 1 
    0.424005 4.102824e-02 6.846400e-14 1 
    0.424280 4.167493e-02 6.945300e-14 1 
    0.424555 4.039634e-02 6.723500e-14 1 
    0.424830 3.999628e-02 6.648300e-14 1 
    0.425105 4.113177e-02 6.828200e-14 1 
    0.425380 3.963910e-02 6.571900e-14 1 
    0.425655 4.158916e-02 6.886300e-14 1 
    0.425930 4.237463e-02 7.007300e-14 1 
    0.426205 4.370636e-02 7.218200e-14 1 
    0.426480 4.679421e-02 7.718200e-14 1 
    0.426755 4.596522e-02 7.571700e-14 1 
    0.427030 4.362591e-02 7.177100e-14 1 
    0.427305 4.381601e-02 7.199100e-14 1 
    0.427580 4.200640e-02 6.892900e-14 1 
    0.427855 4.046417e-02 6.631300e-14 1 
    0.428130 3.928751e-02 6.430200e-14 1 
    0.428405 4.080257e-02 6.669600e-14 1 
    0.428680 4.285007e-02 6.995300e-14 1 
    0.428955 4.513456e-02 7.358800e-14 1 
    0.429230 4.586983e-02 7.469100e-14 1 
    0.429505 4.641994e-02 7.549000e-14 1 
    0.429780 4.672507e-02 7.588900e-14 1 
    0.430055 4.593043e-02 7.450300e-14 1 
    0.430330 4.486018e-02 7.267400e-14 1 
    0.430605 4.435633e-02 7.176600e-14 1 
    0.430880 4.381023e-02 7.079200e-14 1 
    0.431155 4.481733e-02 7.232700e-14 1 
    0.431430 4.548131e-02 7.330500e-14 1 
    0.431705 4.675630e-02 7.526400e-14 1 
    0.431980 4.644516e-02 7.466800e-14 1 
    0.432255 4.445775e-02 7.138200e-14 1 
    0.432530 4.344734e-02 6.967100e-14 1 
    0.432805 4.384041e-02 7.021200e-14 1 
    0.433080 4.545537e-02 7.270600e-14 1 
    0.433355 4.412217e-02 7.048400e-14 1 
    0.433630 4.513466e-02 7.201000e-14 1 
    0.433905 4.302427e-02 6.855600e-14 1 
    0.434180 4.298079e-02 6.840000e-14 1 
    0.434455 4.308748e-02 6.848300e-14 1 
    0.434730 3.890677e-02 6.176000e-14 1 
    0.435005 3.788498e-02 6.006200e-14 1 
    0.435280 3.742006e-02 5.925000e-14 1 
    0.435555 3.451803e-02 5.458600e-14 1 
    0.435830 3.354984e-02 5.298800e-14 1 
    0.436105 3.433012e-02 5.415200e-14 1 
    0.436380 3.768687e-02 5.937200e-14 1 
    0.436655 4.263517e-02 6.708300e-14 1 
    0.436930 4.696141e-02 7.379700e-14 1 
    0.437205 4.679754e-02 7.344700e-14 1 
    0.437480 4.728258e-02 7.411500e-14 1 
    0.437755 4.764610e-02 7.459100e-14 1 
    0.438030 4.863208e-02 7.603900e-14 1 
    0.438305 5.002513e-02 7.811900e-14 1 
    0.438580 4.758991e-02 7.422300e-14 1 
    0.438855 4.777736e-02 7.442200e-14 1 
    0.439130 4.551745e-02 7.081300e-14 1 
    0.439405 4.403823e-02 6.842600e-14 1 
    0.439680 4.557032e-02 7.071800e-14 1 
    0.439955 5.058184e-02 7.839700e-14 1 
    0.440230 5.158440e-02 7.985100e-14 1 
    0.440505 4.936431e-02 7.631900e-14 1 
    0.440780 5.192255e-02 8.017400e-14 1 
    0.441055 5.231028e-02 8.067200e-14 1 
    0.441330 5.284753e-02 8.139900e-14 1 
    0.441605 5.611036e-02 8.631700e-14 1 
    0.441880 5.621085e-02 8.636400e-14 1 
    0.442155 5.497228e-02 8.435600e-14 1 
    0.442430 5.222392e-02 8.003900e-14 1 
    0.442705 5.066347e-02 7.755100e-14 1 
    0.442980 5.015083e-02 7.667100e-14 1 
    0.443255 5.041875e-02 7.698500e-14 1 
    0.443530 4.750760e-02 7.245000e-14 1 
    0.443805 4.443548e-02 6.768100e-14 1 
    0.444080 4.616617e-02 7.023000e-14 1 
    0.444355 4.862042e-02 7.387200e-14 1 
    0.444630 5.301411e-02 8.044800e-14 1 
    0.444905 5.446595e-02 8.254900e-14 1 
    0.445180 5.219472e-02 7.900900e-14 1 
    0.445455 5.236042e-02 7.916200e-14 1 
    0.445730 5.342377e-02 8.067000e-14 1 
    0.446005 5.207406e-02 7.853500e-14 1 
    0.446280 5.294159e-02 7.974500e-14 1 
    0.446555 5.365761e-02 8.072400e-14 1 
    0.446830 5.425280e-02 8.151900e-14 1 
    0.447105 5.668646e-02 8.507100e-14 1 
    0.447380 5.709713e-02 8.558200e-14 1 
    0.447655 5.821541e-02 8.715100e-14 1 
    0.447930 6.040639e-02 9.032000e-14 1 
    0.448205 5.902416e-02 8.814500e-14 1 
    0.448480 5.688815e-02 8.485100e-14 1 
    0.448755 5.746408e-02 8.560500e-14 1 
    0.449030 5.757149e-02 8.566000e-14 1 
    0.449305 5.800541e-02 8.620000e-14 1 
    0.449580 5.872120e-02 8.715700e-14 1 
    0.449855 5.906019e-02 8.755300e-14 1 
    0.450130 5.987940e-02 8.865900e-14 1 
    0.450405 6.006011e-02 8.881800e-14 1 
    0.450680 5.879225e-02 8.683700e-14 1 
    0.450955 5.662435e-02 8.353300e-14 1 
    0.451230 5.891683e-02 8.680900e-14 1 
    0.451505 5.542865e-02 8.157000e-14 1 
    0.451780 5.495871e-02 8.078000e-14 1 
    0.452055 5.708757e-02 8.380700e-14 1 
    0.452330 6.167126e-02 9.042600e-14 1 
    0.452605 6.146836e-02 9.001900e-14 1 
    0.452880 6.238877e-02 9.125600e-14 1 
    0.453155 6.436541e-02 9.403300e-14 1 
    0.453430 6.320037e-02 9.221900e-14 1 
    0.453705 6.374639e-02 9.290300e-14 1 
    0.453980 6.475800e-02 9.426300e-14 1 
    0.454255 6.515563e-02 9.472700e-14 1 
    0.454530 6.312036e-02 9.165700e-14 1 
    0.454805 6.361803e-02 9.226800e-14 1 
    0.455080 6.425623e-02 9.308100e-14 1 
    0.455355 6.644748e-02 9.613900e-14 1 
    0.455630 6.754362e-02 9.760700e-14 1 
    0.455905 6.986509e-02 1.008400e-13 1 
    0.456180 7.013670e-02 1.011100e-13 1 
    0.456455 7.011016e-02 1.009500e-13 1 
    0.456730 7.099431e-02 1.021000e-13 1 
    0.457005 6.937210e-02 9.964700e-14 1 
    0.457280 6.808598e-02 9.768200e-14 1 
    0.457555 6.779523e-02 9.714800e-14 1 
    0.457830 6.449088e-02 9.230200e-14 1 
    0.458105 6.121971e-02 8.751500e-14 1 
    0.458380 6.025808e-02 8.603700e-14 1 
    0.458655 6.174125e-02 8.804900e-14 1 
    0.458930 6.335070e-02 9.023600e-14 1 
    0.459205 6.324460e-02 8.997700e-14 1 
    0.459480 6.573842e-02 9.341300e-14 1 
    0.459755 6.571849e-02 9.327300e-14 1 
    0.460030 6.485680e-02 9.194000e-14 1 
    0.460305 6.634831e-02 9.394200e-14 1 
    0.460580 6.673733e-02 9.438000e-14 1 
    0.460855 6.538273e-02 9.235400e-14 1 
    0.461130 6.608666e-02 9.323700e-14 1 
    0.461405 6.981664e-02 9.838200e-14 1 
    0.461680 6.982955e-02 9.828300e-14 1 
    0.461955 7.102459e-02 9.984600e-14 1 
    0.462230 7.102157e-02 9.972300e-14 1 
    0.462505 6.999163e-02 9.816000e-14 1 
    0.462780 7.089157e-02 9.930400e-14 1 
    0.463055 7.180208e-02 1.004600e-13 1 
    0.463330 7.001400e-02 9.784200e-14 1 
    0.463605 6.903037e-02 9.635300e-14 1 
    0.463880 6.855352e-02 9.557400e-14 1 
    0.464155 6.954470e-02 9.684100e-14 1 
    0.464430 7.083502e-02 9.852100e-14 1 
    0.464705 6.912150e-02 9.602400e-14 1 
    0.464980 6.929991e-02 9.615800e-14 1 
    0.465255 6.930037e-02 9.604500e-14 1 
    0.465530 6.923929e-02 9.584700e-14 1 
    0.465805 7.109740e-02 9.830300e-14 1 
    0.466080 7.124438e-02 9.839000e-14 1 
    0.466355 7.313362e-02 1.008800e-13 1 
    0.466630 7.397474e-02 1.019200e-13 1 
    0.466905 7.487582e-02 1.030400e-13 1 
    0.467180 7.592438e-02 1.043600e-13 1 
    0.467455 7.618860e-02 1.046000e-13 1 
    0.467730 7.568759e-02 1.037900e-13 1 
    0.468005 7.400978e-02 1.013700e-13 1 
    0.468280 7.661127e-02 1.048100e-13 1 
    0.468555 7.538401e-02 1.030100e-13 1 
    0.468830 7.432223e-02 1.014400e-13 1 
    0.469105 7.490825e-02 1.021200e-13 1 
    0.469380 7.343699e-02 9.999700e-14 1 
    0.469655 7.191506e-02 9.781000e-14 1 
    0.469930 7.122639e-02 9.676000e-14 1 
    0.470205 6.824985e-02 9.260800e-14 1 
    0.470480 7.049748e-02 9.554600e-14 1 
    0.470755 7.156238e-02 9.687600e-14 1 
    0.471030 7.461463e-02 1.008900e-13 1 
    0.471305 7.506458e-02 1.013800e-13 1 
    0.471580 7.502619e-02 1.012100e-13 1 
    0.471855 7.432703e-02 1.001500e-13 1 
    0.472130 7.245731e-02 9.751700e-14 1 
    0.472405 6.908787e-02 9.287400e-14 1 
    0.472680 6.883692e-02 9.242900e-14 1 
    0.472955 6.988635e-02 9.372900e-14 1 
    0.473230 7.100078e-02 9.511300e-14 1 
    0.473505 7.178958e-02 9.605800e-14 1 
    0.473780 7.338366e-02 9.807700e-14 1 
    0.474055 7.318646e-02 9.770000e-14 1 
    0.474330 7.168372e-02 9.558300e-14 1 
    0.474605 7.173157e-02 9.553600e-14 1 
    0.474880 7.378343e-02 9.815500e-14 1 
    0.475155 7.173613e-02 9.532100e-14 1 
    0.475430 6.972009e-02 9.253500e-14 1 
    0.475705 7.040195e-02 9.333200e-14 1 
    0.475980 6.983995e-02 9.248000e-14 1 
    0.476255 7.012255e-02 9.274700e-14 1 
    0.476530 6.969716e-02 9.207800e-14 1 
    0.476805 7.128112e-02 9.406200e-14 1 
    0.477080 7.286860e-02 9.604600e-14 1 
    0.477355 7.412235e-02 9.758600e-14 1 
    0.477630 7.735141e-02 1.017200e-13 1 
    0.477905 7.808762e-02 1.025700e-13 1 
    0.478180 7.679795e-02 1.007600e-13 1 
    0.478455 7.577378e-02 9.930200e-14 1 
    0.478730 7.372874e-02 9.651100e-14 1 
    0.479005 7.365592e-02 9.630500e-14 1 
    0.479280 7.406593e-02 9.673000e-14 1 
    0.479555 7.610879e-02 9.928400e-14 1 
    0.479830 7.768957e-02 1.012300e-13 1 
    0.480105 7.732534e-02 1.006400e-13 1 
    0.480380 7.773701e-02 1.010600e-13 1 
    0.480655 7.755651e-02 1.007100e-13 1 
    0.480930 7.802305e-02 1.012000e-13 1 
    0.481205 7.621817e-02 9.874600e-14 1 
    0.481480 7.605648e-02 9.842400e-14 1 
    0.481755 7.548426e-02 9.757200e-14 1 
    0.482030 7.456592e-02 9.627500e-14 1 
    0.482305 7.324291e-02 9.445900e-14 1 
    0.482580 7.317896e-02 9.426900e-14 1 
    0.482855 7.512991e-02 9.667200e-14 1 
    0.483130 7.652808e-02 9.835900e-14 1 
    0.483405 7.750788e-02 9.950500e-14 1 
    0.483680 7.700422e-02 9.874600e-14 1 
    0.483955 7.747825e-02 9.924100e-14 1 
    0.484230 7.670579e-02 9.814000e-14 1 
    0.484505 7.654176e-02 9.781900e-14 1 
    0.484780 7.652135e-02 9.768200e-14 1 
    0.485055 7.964956e-02 1.015600e-13 1 
    0.485330 8.008537e-02 1.020000e-13 1 
    0.485605 8.000322e-02 1.017800e-13 1 
    0.485880 7.970826e-02 1.012900e-13 1 
    0.486155 7.704665e-02 9.779700e-14 1 
    0.486430 7.895813e-02 1.001100e-13 1 
    0.486705 7.888399e-02 9.990300e-14 1 
    0.486980 7.891466e-02 9.982900e-14 1 
    0.487255 7.921828e-02 1.001000e-13 1 
    0.487530 8.073384e-02 1.019000e-13 1 
    0.487805 8.149914e-02 1.027500e-13 1 
    0.488080 8.157518e-02 1.027300e-13 1 
    0.488355 8.181817e-02 1.029200e-13 1 
    0.488630 7.985701e-02 1.003400e-13 1 
    0.488905 8.112613e-02 1.018200e-13 1 
    0.489180 8.030012e-02 1.006700e-13 1 
    0.489455 7.743817e-02 9.697300e-14 1 
    0.489730 7.812560e-02 9.772400e-14 1 
    0.490005 7.814774e-02 9.764200e-14 1 
    0.490280 7.837089e-02 9.781100e-14 1 
    0.490555 7.893851e-02 9.840900e-14 1 
    0.490830 7.863114e-02 9.791600e-14 1 
    0.491105 7.648671e-02 9.513900e-14 1 
    0.491380 7.223910e-02 8.975500e-14 1 
    0.491655 6.912680e-02 8.579200e-14 1 
    0.491930 6.755294e-02 8.374500e-14 1 
    0.492205 6.873402e-02 8.511400e-14 1 
    0.492480 6.829020e-02 8.447000e-14 1 
    0.492755 7.002567e-02 8.652000e-14 1 
    0.493030 7.257435e-02 8.956900e-14 1 
    0.493305 7.252797e-02 8.941200e-14 1 
    0.493580 7.495006e-02 9.229500e-14 1 
    0.493855 7.520027e-02 9.250000e-14 1 
    0.494130 7.623058e-02 9.366300e-14 1 
    0.494405 7.574347e-02 9.296100e-14 1 
    0.494680 7.638732e-02 9.364700e-14 1 
    0.494955 7.695815e-02 9.424200e-14 1 
    0.495230 7.701263e-02 9.420400e-14 1 
    0.495505 8.101021e-02 9.898400e-14 1 
    0.495780 8.426768e-02 1.028500e-13 1 
    0.496055 8.404949e-02 1.024700e-13 1 
    0.496330 8.223765e-02 1.001500e-13 1 
    0.496605 8.290425e-02 1.008500e-13 1 
    0.496880 8.156660e-02 9.911300e-14 1 
    0.497155 8.162478e-02 9.907400e-14 1 
    0.497430 7.925723e-02 9.609400e-14 1 
    0.497705 7.907489e-02 9.576700e-14 1 
    0.497980 7.911023e-02 9.570400e-14 1 
    0.498255 7.832044e-02 9.464400e-14 1 
    0.498530 8.004475e-02 9.662100e-14 1 
    0.498805 8.217744e-02 9.908600e-14 1 
    0.499080 8.289078e-02 9.983600e-14 1 
    0.499355 8.250754e-02 9.926500e-14 1 
    0.499630 8.047327e-02 9.671100e-14 1 
    0.499905 7.947229e-02 9.540300e-14 1 
    0.500180 8.189642e-02 9.820500e-14 1 
    0.500455 8.447853e-02 1.011900e-13 1 
    0.500730 8.811506e-02 1.054300e-13 1 
    0.501005 9.011115e-02 1.077000e-13 1 
    0.501280 8.658326e-02 1.033700e-13 1 
    0.501555 8.285127e-02 9.880600e-14 1 
    0.501830 8.275327e-02 9.858100e-14 1 
    0.502105 8.345410e-02 9.930700e-14 1 
    0.502380 8.536524e-02 1.014700e-13 1 
    0.502655 8.271144e-02 9.820800e-14 1 
    0.502930 8.292338e-02 9.835200e-14 1 
    0.503205 8.153700e-02 9.660200e-14 1 
    0.503480 8.245591e-02 9.758400e-14 1 
    0.503755 8.225670e-02 9.724200e-14 1 
    0.504030 8.037430e-02 9.491300e-14 1 
    0.504305 7.824941e-02 9.230300e-14 1 
    0.504580 7.815740e-02 9.209400e-14 1 
    0.504855 7.928422e-02 9.332000e-14 1 
    0.505130 8.001105e-02 9.407300e-14 1 
    0.505405 8.063462e-02 9.470300e-14 1 
    0.505680 8.258483e-02 9.688800e-14 1 
    0.505955 8.138107e-02 9.537200e-14 1 
    0.506230 8.185653e-02 9.582500e-14 1 
    0.506505 8.103389e-02 9.475900e-14 1 
    0.506780 8.030691e-02 9.380700e-14 1 
    0.507055 8.028439e-02 9.367900e-14 1 
    0.507330 8.034661e-02 9.365000e-14 1 
    0.507605 7.741737e-02 9.013800e-14 1 
    0.507880 7.585646e-02 8.822500e-14 1 
    0.508155 7.732270e-02 8.983300e-14 1 
    0.508430 7.768904e-02 9.016100e-14 1 
    0.508705 7.843214e-02 9.092500e-14 1 
    0.508980 8.049791e-02 9.321900e-14 1 
    0.509255 8.352065e-02 9.661500e-14 1 
    0.509530 8.388954e-02 9.693700e-14 1 
    0.509805 8.236353e-02 9.507100e-14 1 
    0.510080 7.886971e-02 9.094000e-14 1 
    0.510355 7.951564e-02 9.158600e-14 1 
    0.510630 8.253906e-02 9.496600e-14 1 
    0.510905 8.386611e-02 9.638900e-14 1 
    0.511180 8.484485e-02 9.740900e-14 1 
    0.511455 8.433626e-02 9.672100e-14 1 
    0.511730 8.628362e-02 9.884800e-14 1 
    0.512005 8.673203e-02 9.925500e-14 1 
    0.512280 8.701942e-02 9.947700e-14 1 
    0.512555 8.637378e-02 9.863300e-14 1 
    0.512830 8.668477e-02 9.888200e-14 1 
    0.513105 8.528937e-02 9.718600e-14 1 
    0.513380 8.296574e-02 9.443700e-14 1 
    0.513655 8.351109e-02 9.495600e-14 1 
    0.513930 8.162577e-02 9.271300e-14 1 
    0.514205 8.086881e-02 9.175500e-14 1 
    0.514480 8.294138e-02 9.400600e-14 1 
    0.514755 8.353706e-02 9.458000e-14 1 
    0.515030 8.288185e-02 9.373800e-14 1 
    0.515305 8.548150e-02 9.657500e-14 1 
    0.515580 8.611238e-02 9.718400e-14 1 
    0.515855 8.555497e-02 9.645200e-14 1 
    0.516130 8.414288e-02 9.475900e-14 1 
    0.516405 8.281831e-02 9.316800e-14 1 
    0.516680 8.447714e-02 9.493300e-14 1 
    0.516955 8.361126e-02 9.386000e-14 1 
    0.517230 8.486844e-02 9.517000e-14 1 
    0.517505 8.710209e-02 9.757100e-14 1 
    0.517780 8.783185e-02 9.828400e-14 1 
    0.518055 8.633458e-02 9.650600e-14 1 
    0.518330 8.484471e-02 9.474000e-14 1 
    0.518605 8.407860e-02 9.378500e-14 1 
    0.518880 8.253623e-02 9.196700e-14 1 
    0.519155 8.262014e-02 9.196300e-14 1 
    0.519430 8.308093e-02 9.237800e-14 1 
    0.519705 8.326975e-02 9.249000e-14 1 
    0.519980 8.268646e-02 9.174500e-14 1 
    0.520255 8.184917e-02 9.072000e-14 1 
    0.520530 7.932556e-02 8.783000e-14 1 
    0.520805 7.907758e-02 8.746300e-14 1 
    0.521080 8.152156e-02 9.007100e-14 1 
    0.521355 8.288605e-02 9.148200e-14 1 
    0.521630 8.407097e-02 9.269200e-14 1 
    0.521905 8.387636e-02 9.238000e-14 1 
    0.522180 8.425654e-02 9.270100e-14 1 
    0.522455 8.317704e-02 9.141700e-14 1 
    0.522730 7.807112e-02 8.571500e-14 1 
    0.523005 7.331173e-02 8.040500e-14 1 
    0.523280 7.211922e-02 7.901400e-14 1 
    0.523555 7.032470e-02 7.696700e-14 1 
    0.523830 7.338587e-02 8.023300e-14 1 
    0.524105 7.466058e-02 8.154100e-14 1 
    0.524380 7.295436e-02 7.959400e-14 1 
    0.524655 7.537156e-02 8.214500e-14 1 
    0.524930 7.629837e-02 8.306800e-14 1 
    0.525205 7.837358e-02 8.523800e-14 1 
    0.525480 8.181524e-02 8.888800e-14 1 
    0.525755 8.524833e-02 9.252100e-14 1 
    0.526030 8.704574e-02 9.437300e-14 1 
    0.526305 8.478507e-02 9.182600e-14 1 
    0.526580 8.331996e-02 9.014500e-14 1 
    0.526855 8.191828e-02 8.853600e-14 1 
    0.527130 8.237338e-02 8.893500e-14 1 
    0.527405 8.401795e-02 9.061600e-14 1 
    0.527680 8.678331e-02 9.350100e-14 1 
    0.527955 8.990458e-02 9.676300e-14 1 
    0.528230 8.996665e-02 9.672900e-14 1 
    0.528505 8.863303e-02 9.519600e-14 1 
    0.528780 8.881384e-02 9.529100e-14 1 
    0.529055 8.898554e-02 9.537600e-14 1 
    0.529330 8.840469e-02 9.465500e-14 1 
    0.529605 8.876676e-02 9.494400e-14 1 
    0.529880 9.043130e-02 9.662400e-14 1 
    0.530155 9.227997e-02 9.849700e-14 1 
    0.530430 9.437617e-02 1.006300e-13 1 
    0.530705 9.473693e-02 1.009100e-13 1 
    0.530980 9.307958e-02 9.904200e-14 1 
    0.531255 9.231333e-02 9.812500e-14 1 
    0.531530 9.203694e-02 9.773000e-14 1 
    0.531805 9.298630e-02 9.863600e-14 1 
    0.532080 9.296926e-02 9.851600e-14 1 
    0.532355 9.233893e-02 9.774700e-14 1 
    0.532630 8.831511e-02 9.339100e-14 1 
    0.532905 8.491990e-02 8.970800e-14 1 
    0.533180 8.091676e-02 8.539100e-14 1 
    0.533455 8.307006e-02 8.757300e-14 1 
    0.533730 8.572334e-02 9.027700e-14 1 
    0.534005 8.863479e-02 9.324700e-14 1 
    0.534280 9.418115e-02 9.898000e-14 1 
    0.534555 9.514967e-02 9.989500e-14 1 
    0.534830 9.564328e-02 1.003100e-13 1 
    0.535105 9.856686e-02 1.032700e-13 1 
    0.535380 9.968095e-02 1.043300e-13 1 
    0.535655 1.003955e-01 1.049700e-13 1 
    0.535930 9.863167e-02 1.030200e-13 1 
    0.536205 9.651905e-02 1.007100e-13 1 
    0.536480 9.736638e-02 1.014900e-13 1 
    0.536755 9.608332e-02 1.000500e-13 1 
    0.537030 9.939267e-02 1.033900e-13 1 
    0.537305 1.030070e-01 1.070400e-13 1 
    0.537580 1.030257e-01 1.069500e-13 1 
    0.537855 1.035362e-01 1.073700e-13 1 
    0.538130 1.025030e-01 1.061900e-13 1 
    0.538405 1.012647e-01 1.048000e-13 1 
    0.538680 9.791510e-02 1.012300e-13 1 
    0.538955 9.404434e-02 9.712900e-14 1 
    0.539230 9.237342e-02 9.530600e-14 1 
    0.539505 9.368820e-02 9.656400e-14 1 
    0.539780 9.543091e-02 9.826000e-14 1 
    0.540055 9.842532e-02 1.012400e-13 1 
    0.540330 9.945984e-02 1.022000e-13 1 
    0.540605 9.847002e-02 1.010800e-13 1 
    0.540880 9.899931e-02 1.015200e-13 1 
    0.541155 9.910976e-02 1.015300e-13 1 
    0.541430 1.013114e-01 1.036800e-13 1 
    0.541705 1.048476e-01 1.071900e-13 1 
    0.541980 1.064424e-01 1.087100e-13 1 
    0.542255 1.069327e-01 1.091000e-13 1 
    0.542530 1.050103e-01 1.070300e-13 1 
    0.542805 1.031132e-01 1.049900e-13 1 
    0.543080 1.013400e-01 1.030800e-13 1 
    0.543355 9.754060e-02 9.911500e-14 1 
    0.543630 9.738619e-02 9.885800e-14 1 
    0.543905 9.926171e-02 1.006600e-13 1 
    0.544180 1.011389e-01 1.024600e-13 1 
    0.544455 1.027529e-01 1.039900e-13 1 
    0.544730 1.017786e-01 1.029000e-13 1 
    0.545005 1.012478e-01 1.022600e-13 1 
    0.545280 9.954617e-02 1.004400e-13 1 
    0.545555 1.008272e-01 1.016300e-13 1 
    0.545830 9.688099e-02 9.755400e-14 1 
    0.546105 9.626985e-02 9.684100e-14 1 
    0.546380 9.693503e-02 9.741200e-14 1 
    0.546655 9.493881e-02 9.531000e-14 1 
    0.546930 9.549802e-02 9.577500e-14 1 
    0.547205 9.702138e-02 9.720500e-14 1 
    0.547480 9.722882e-02 9.731500e-14 1 
    0.547755 9.774057e-02 9.772900e-14 1 
    0.548030 1.012035e-01 1.010900e-13 1 
    0.548305 1.025277e-01 1.023100e-13 1 
    0.548580 1.043861e-01 1.040600e-13 1 
    0.548855 1.043803e-01 1.039500e-13 1 
    0.549130 1.023138e-01 1.017900e-13 1 
    0.549405 9.968157e-02 9.907200e-14 1 
    0.549680 1.000996e-01 9.938800e-14 1 
    0.549955 9.884082e-02 9.804000e-14 1 
    0.550230 1.006543e-01 9.973900e-14 1 
    0.550505 1.020288e-01 1.010000e-13 1 
    0.550780 1.025554e-01 1.014200e-13 1 
    0.551055 1.033563e-01 1.021100e-13 1 
    0.551330 1.021119e-01 1.007800e-13 1 
    0.551605 1.011225e-01 9.970400e-14 1 
    0.551880 1.029858e-01 1.014400e-13 1 
    0.552155 1.000803e-01 9.848000e-14 1 
    0.552430 1.011454e-01 9.942900e-14 1 
    0.552705 1.023367e-01 1.005000e-13 1 
    0.552980 1.027750e-01 1.008300e-13 1 
    0.553255 1.050607e-01 1.029700e-13 1 
    0.553530 1.022850e-01 1.001500e-13 1 
    0.553805 1.000179e-01 9.783300e-14 1 
    0.554080 9.987372e-02 9.759500e-14 1 
    0.554355 9.868833e-02 9.634100e-14 1 
    0.554630 1.008288e-01 9.833300e-14 1 
    0.554905 9.857839e-02 9.604300e-14 1 
    0.555180 1.009097e-01 9.821700e-14 1 
    0.555455 1.043346e-01 1.014500e-13 1 
    0.555730 1.031718e-01 1.002200e-13 1 
    0.556005 1.048299e-01 1.017300e-13 1 
    0.556280 1.037680e-01 1.006000e-13 1 
    0.556555 1.036745e-01 1.004100e-13 1 
    0.556830 1.020530e-01 9.874200e-14 1 
    0.557105 1.021539e-01 9.874200e-14 1 
    0.557380 1.015723e-01 9.808300e-14 1 
    0.557655 1.002037e-01 9.666600e-14 1 
    0.557930 1.003606e-01 9.672200e-14 1 
    0.558205 1.010911e-01 9.733000e-14 1 
    0.558480 1.046008e-01 1.006100e-13 1 
    0.558755 1.049224e-01 1.008200e-13 1 
    0.559030 1.042548e-01 1.000800e-13 1 
    0.559305 1.050978e-01 1.007900e-13 1 
    0.559580 1.043870e-01 1.000100e-13 1 
    0.559855 1.023186e-01 9.793200e-14 1 
    0.560130 1.035141e-01 9.897900e-14 1 
    0.560405 1.050929e-01 1.003900e-13 1 
    0.560680 1.086959e-01 1.037300e-13 1 
    0.560955 1.064530e-01 1.014900e-13 1 
    0.561230 1.090983e-01 1.039100e-13 1 
    0.561505 1.097937e-01 1.044700e-13 1 
    0.561780 1.120474e-01 1.065100e-13 1 
    0.562055 1.093771e-01 1.038700e-13 1 
    0.562330 1.081877e-01 1.026400e-13 1 
    0.562605 1.066476e-01 1.010800e-13 1 
    0.562880 1.085050e-01 1.027400e-13 1 
    0.563155 1.050971e-01 9.941600e-14 1 
    0.563430 1.029882e-01 9.732600e-14 1 
    0.563705 1.078912e-01 1.018600e-13 1 
    0.563980 1.063425e-01 1.003000e-13 1 
    0.564255 1.090040e-01 1.027100e-13 1 
    0.564530 1.082285e-01 1.018800e-13 1 
    0.564805 1.036425e-01 9.746800e-14 1 
    0.565080 1.048068e-01 9.846700e-14 1 
    0.565355 1.044773e-01 9.806200e-14 1 
    0.565630 1.025911e-01 9.619800e-14 1 
    0.565905 1.020973e-01 9.564200e-14 1 
    0.566180 1.045570e-01 9.785100e-14 1 
    0.566455 1.040553e-01 9.728700e-14 1 
    0.566730 1.068736e-01 9.982500e-14 1 
    0.567005 1.046733e-01 9.767500e-14 1 
    0.567280 1.036925e-01 9.666600e-14 1 
    0.567555 1.050687e-01 9.785400e-14 1 
    0.567830 1.095620e-01 1.019400e-13 1 
    0.568105 1.090334e-01 1.013500e-13 1 
    0.568380 1.060689e-01 9.849900e-14 1 
    0.568655 1.042799e-01 9.674400e-14 1 
    0.568930 1.023826e-01 9.489200e-14 1 
    0.569205 1.005009e-01 9.305800e-14 1 
    0.569480 1.019590e-01 9.431700e-14 1 
    0.569755 1.052810e-01 9.729600e-14 1 
    0.570030 1.055137e-01 9.741700e-14 1 
    0.570305 1.082837e-01 9.987800e-14 1 
    0.570580 1.067516e-01 9.837000e-14 1 
    0.570855 1.078615e-01 9.929700e-14 1 
    0.571130 1.073207e-01 9.870400e-14 1 
    0.571405 1.078725e-01 9.911600e-14 1 
    0.571680 1.089938e-01 1.000500e-13 1 
    0.571955 1.070945e-01 9.821200e-14 1 
    0.572230 1.086502e-01 9.954300e-14 1 
    0.572505 1.090388e-01 9.980300e-14 1 
    0.572780 1.034536e-01 9.460000e-14 1 
    0.573055 1.042688e-01 9.525400e-14 1 
    0.573330 1.057276e-01 9.649400e-14 1 
    0.573605 1.085172e-01 9.894500e-14 1 
    0.573880 1.077452e-01 9.814700e-14 1 
    0.574155 1.111703e-01 1.011700e-13 1 
    0.574430 1.136746e-01 1.033500e-13 1 
    0.574705 1.138715e-01 1.034300e-13 1 
    0.574980 1.132973e-01 1.028100e-13 1 
    0.575255 1.110672e-01 1.006900e-13 1 
    0.575530 1.084154e-01 9.819200e-14 1 
    0.575805 1.084615e-01 9.814000e-14 1 
    0.576080 1.097875e-01 9.924500e-14 1 
    0.576355 1.133305e-01 1.023500e-13 1 
    0.576630 1.114658e-01 1.005700e-13 1 
    0.576905 1.092579e-01 9.848400e-14 1 
    0.577180 1.061818e-01 9.562000e-14 1 
    0.577455 1.093063e-01 9.834000e-14 1 
    0.577730 1.069172e-01 9.609900e-14 1 
    0.578005 1.078186e-01 9.681700e-14 1 
    0.578280 1.095698e-01 9.829600e-14 1 
    0.578555 1.097488e-01 9.836300e-14 1 
    0.578830 1.114647e-01 9.980600e-14 1 
    0.579105 1.144704e-01 1.024000e-13 1 
    0.579380 1.147918e-01 1.025900e-13 1 
    0.579655 1.126944e-01 1.006200e-13 1 
    0.579930 1.129583e-01 1.007600e-13 1 
    0.580205 1.149618e-01 1.024500e-13 1 
    0.580480 1.146665e-01 1.020900e-13 1 
    0.580755 1.130101e-01 1.005200e-13 1 
    0.581030 1.139949e-01 1.013000e-13 1 
    0.581305 1.134495e-01 1.007200e-13 1 
    0.581580 1.122400e-01 9.955200e-14 1 
    0.581855 1.136417e-01 1.007000e-13 1 
    0.582130 1.140541e-01 1.009700e-13 1 
    0.582405 1.156657e-01 1.023000e-13 1 
    0.582680 1.147111e-01 1.013600e-13 1 
    0.582955 1.136866e-01 1.003600e-13 1 
    0.583230 1.138279e-01 1.003900e-13 1 
    0.583505 1.142644e-01 1.006800e-13 1 
    0.583780 1.147470e-01 1.010100e-13 1 
    0.584055 1.195058e-01 1.051000e-13 1 
    0.584330 1.180136e-01 1.036900e-13 1 
    0.584605 1.142286e-01 1.002700e-13 1 
    0.584880 1.118674e-01 9.810500e-14 1 
    0.585155 1.119406e-01 9.807700e-14 1 
    0.585430 1.116414e-01 9.772300e-14 1 
    0.585705 1.140173e-01 9.970900e-14 1 
    0.585980 1.168497e-01 1.020900e-13 1 
    0.586255 1.167990e-01 1.019500e-13 1 
    0.586530 1.179177e-01 1.028300e-13 1 
    0.586805 1.182349e-01 1.030100e-13 1 
    0.587080 1.218843e-01 1.060900e-13 1 
    0.587355 1.210095e-01 1.052300e-13 1 
    0.587630 1.215948e-01 1.056400e-13 1 
    0.587905 1.206717e-01 1.047400e-13 1 
    0.588180 1.218225e-01 1.056400e-13 1 
    0.588455 1.219018e-01 1.056100e-13 1 
    0.588730 1.217501e-01 1.053800e-13 1 
    0.589005 1.219795e-01 1.054800e-13 1 
    0.589280 1.230426e-01 1.063000e-13 1 
    0.589555 1.241422e-01 1.071500e-13 1 
    0.589830 1.231448e-01 1.061900e-13 1 
    0.590105 1.228186e-01 1.058100e-13 1 
    0.590380 1.232003e-01 1.060400e-13 1 
    0.590655 1.254432e-01 1.078700e-13 1 
    0.590930 1.250479e-01 1.074300e-13 1 
    0.591205 1.258284e-01 1.080000e-13 1 
    0.591480 1.227852e-01 1.052900e-13 1 
    0.591755 1.216154e-01 1.041900e-13 1 
    0.592030 1.141881e-01 9.773600e-14 1 
    0.592305 1.133200e-01 9.690300e-14 1 
    0.592580 1.119985e-01 9.568400e-14 1 
    0.592855 1.112741e-01 9.497700e-14 1 
    0.593130 1.105213e-01 9.424700e-14 1 
    0.593405 1.115206e-01 9.501100e-14 1 
    0.593680 1.106535e-01 9.418500e-14 1 
    0.593955 1.129492e-01 9.605000e-14 1 
    0.594230 1.154844e-01 9.811500e-14 1 
    0.594505 1.180477e-01 1.002000e-13 1 
    0.594780 1.145863e-01 9.717200e-14 1 
    0.595055 1.113426e-01 9.433400e-14 1 
    0.595330 1.071499e-01 9.069800e-14 1 
    0.595605 1.046948e-01 8.853800e-14 1 
    0.595880 9.663902e-02 8.165000e-14 1 
    0.596155 9.053479e-02 7.642200e-14 1 
    0.596430 9.450052e-02 7.969600e-14 1 
    0.596705 9.707534e-02 8.179200e-14 1 
    0.596980 1.009259e-01 8.495800e-14 1 
    0.597255 1.061354e-01 8.926100e-14 1 
    0.597530 1.092085e-01 9.176100e-14 1 
    0.597805 1.119869e-01 9.400900e-14 1 
    0.598080 1.143172e-01 9.587700e-14 1 
    0.598355 1.160574e-01 9.724700e-14 1 
    0.598630 1.182175e-01 9.896600e-14 1 
    0.598905 1.201363e-01 1.004800e-13 1 
    0.599180 1.223170e-01 1.022100e-13 1 
    0.599455 1.237589e-01 1.033200e-13 1 
    0.599730 1.224457e-01 1.021300e-13 1 
    0.600005 1.191968e-01 9.932900e-14 1 
    0.600280 1.170564e-01 9.745600e-14 1 
    0.600555 1.142326e-01 9.501800e-14 1 
    0.600830 1.182830e-01 9.829700e-14 1 
    0.601105 1.196704e-01 9.935900e-14 1 
    0.601380 1.205068e-01 9.996200e-14 1 
    0.601655 1.212300e-01 1.004700e-13 1 
    0.601930 1.204955e-01 9.977000e-14 1 
    0.602205 1.211737e-01 1.002400e-13 1 
    0.602480 1.218652e-01 1.007200e-13 1 
    0.602755 1.198729e-01 9.898300e-14 1 
    0.603030 1.181920e-01 9.750600e-14 1 
    0.603305 1.194099e-01 9.842100e-14 1 
    0.603580 1.207283e-01 9.941700e-14 1 
    0.603855 1.199826e-01 9.871300e-14 1 
    0.604130 1.188352e-01 9.768000e-14 1 
    0.604405 1.209234e-01 9.930600e-14 1 
    0.604680 1.239756e-01 1.017200e-13 1 
    0.604955 1.208581e-01 9.907200e-14 1 
    0.605230 1.201609e-01 9.841100e-14 1 
    0.605505 1.192778e-01 9.759900e-14 1 
    0.605780 1.205470e-01 9.854800e-14 1 
    0.606055 1.191028e-01 9.727900e-14 1 
    0.606330 1.223860e-01 9.987000e-14 1 
    0.606605 1.217047e-01 9.922400e-14 1 
    0.606880 1.211779e-01 9.870500e-14 1 
    0.607155 1.210838e-01 9.853900e-14 1 
    0.607430 1.223066e-01 9.944400e-14 1 
    0.607705 1.193853e-01 9.698100e-14 1 
    0.607980 1.215018e-01 9.861100e-14 1 
    0.608255 1.211961e-01 9.827400e-14 1 
    0.608530 1.224833e-01 9.922800e-14 1 
    0.608805 1.205246e-01 9.755300e-14 1 
    0.609080 1.213050e-01 9.809600e-14 1 
    0.609355 1.204925e-01 9.735100e-14 1 
    0.609630 1.242793e-01 1.003200e-13 1 
    0.609905 1.262886e-01 1.018500e-13 1 
    0.610180 1.276932e-01 1.028900e-13 1 
    0.610455 1.286158e-01 1.035400e-13 1 
    0.610730 1.287441e-01 1.035500e-13 1 
    0.611005 1.293952e-01 1.039800e-13 1 
    0.611280 1.287394e-01 1.033600e-13 1 
    0.611555 1.278829e-01 1.025800e-13 1 
    0.611830 1.323153e-01 1.060400e-13 1 
    0.612105 1.285626e-01 1.029400e-13 1 
    0.612380 1.279906e-01 1.023900e-13 1 
    0.612655 1.249064e-01 9.983300e-14 1 
    0.612930 1.272439e-01 1.016100e-13 1 
    0.613205 1.305292e-01 1.041400e-13 1 
    0.613480 1.247764e-01 9.946100e-14 1 
    0.613755 1.287293e-01 1.025200e-13 1 
    0.614030 1.284928e-01 1.022400e-13 1 
    0.614305 1.281173e-01 1.018500e-13 1 
    0.614580 1.259003e-01 9.999800e-14 1 
    0.614855 1.300102e-01 1.031700e-13 1 
    0.615130 1.253160e-01 9.935600e-14 1 
    0.615405 1.275793e-01 1.010600e-13 1 
    0.615680 1.270236e-01 1.005300e-13 1 
    0.615955 1.273774e-01 1.007200e-13 1 
    0.616230 1.284405e-01 1.014700e-13 1 
    0.616505 1.260327e-01 9.947900e-14 1 
    0.616780 1.248340e-01 9.844500e-14 1 
    0.617055 1.264151e-01 9.960300e-14 1 
    0.617330 1.253057e-01 9.864100e-14 1 
    0.617605 1.234505e-01 9.709400e-14 1 
    0.617880 1.287729e-01 1.011900e-13 1 
    0.618155 1.289513e-01 1.012400e-13 1 
    0.618430 1.271385e-01 9.972800e-14 1 
    0.618705 1.266225e-01 9.923500e-14 1 
    0.618980 1.261808e-01 9.880100e-14 1 
    0.619255 1.270778e-01 9.941500e-14 1 
    0.619530 1.272751e-01 9.948100e-14 1 
    0.619805 1.252292e-01 9.779500e-14 1 
    0.620080 1.265733e-01 9.875700e-14 1 
    0.620355 1.279517e-01 9.974400e-14 1 
    0.620630 1.260301e-01 9.815900e-14 1 
    0.620905 1.245599e-01 9.692800e-14 1 
    0.621180 1.245841e-01 9.686100e-14 1 
    0.621455 1.284007e-01 9.974000e-14 1 
    0.621730 1.289267e-01 1.000600e-13 1 
    0.622005 1.279588e-01 9.922100e-14 1 
    0.622280 1.272020e-01 9.854700e-14 1 
    0.622555 1.265509e-01 9.795600e-14 1 
    0.622830 1.249352e-01 9.662000e-14 1 
    0.623105 1.234239e-01 9.536700e-14 1 
    0.623380 1.222401e-01 9.436900e-14 1 
    0.623655 1.183354e-01 9.127400e-14 1 
    0.623930 1.127808e-01 8.691300e-14 1 
    0.624205 1.104437e-01 8.503700e-14 1 
    0.624480 1.178700e-01 9.067500e-14 1 
    0.624755 1.234552e-01 9.488800e-14 1 
    0.625030 1.253857e-01 9.628700e-14 1 
    0.625305 1.287401e-01 9.877600e-14 1 
    0.625580 1.238219e-01 9.491900e-14 1 
    0.625855 1.214449e-01 9.301500e-14 1 
    0.626130 1.214353e-01 9.292600e-14 1 
    0.626405 1.174377e-01 8.978800e-14 1 
    0.626680 1.160327e-01 8.863600e-14 1 
    0.626955 1.197220e-01 9.137400e-14 1 
    0.627230 1.258451e-01 9.596300e-14 1 
    0.627505 1.286068e-01 9.798300e-14 1 
    0.627780 1.305547e-01 9.938000e-14 1 
    0.628055 1.307257e-01 9.942300e-14 1 
    0.628330 1.296992e-01 9.855600e-14 1 
    0.628605 1.280518e-01 9.721900e-14 1 
    0.628880 1.260427e-01 9.561000e-14 1 
    0.629155 1.245221e-01 9.437400e-14 1 
    0.629430 1.246164e-01 9.436300e-14 1 
    0.629705 1.245760e-01 9.425000e-14 1 
    0.629980 1.234267e-01 9.329900e-14 1 
    0.630255 1.237675e-01 9.347500e-14 1 
    0.630530 1.262080e-01 9.523500e-14 1 
    0.630805 1.249453e-01 9.420000e-14 1 
    0.631080 1.256994e-01 9.468600e-14 1 
    0.631355 1.248776e-01 9.398500e-14 1 
    0.631630 1.252178e-01 9.415900e-14 1 
    0.631905 1.248264e-01 9.378300e-14 1 
    0.632180 1.222681e-01 9.178100e-14 1 
    0.632455 1.243051e-01 9.322900e-14 1 
    0.632730 1.218951e-01 9.134200e-14 1 
    0.633005 1.157716e-01 8.667800e-14 1 
    0.633280 1.181300e-01 8.836700e-14 1 
    0.633555 1.238147e-01 9.253900e-14 1 
    0.633830 1.252627e-01 9.354000e-14 1 
    0.634105 1.284688e-01 9.585100e-14 1 
    0.634380 1.284126e-01 9.572600e-14 1 
    0.634655 1.295336e-01 9.647800e-14 1 
    0.634930 1.289780e-01 9.598100e-14 1 
    0.635205 1.264039e-01 9.398400e-14 1 
    0.635480 1.280089e-01 9.509500e-14 1 
    0.635755 1.269476e-01 9.422500e-14 1 
    0.636030 1.296653e-01 9.615900e-14 1 
    0.636305 1.103984e-01 8.180000e-14 1 
    0.636580 6.827924e-02 5.054800e-14 1 
    0.636855 8.702622e-02 6.437100e-14 1 
    0.637130 7.739549e-02 5.719800e-14 1 
    0.637405 1.254839e-01 9.265700e-14 1 
    0.637680 1.242625e-01 9.167600e-14 1 
    0.637955 1.306318e-01 9.629200e-14 1 
    0.638230 1.277954e-01 9.412000e-14 1 
    0.638505 1.273864e-01 9.373800e-14 1 
    0.638780 1.329707e-01 9.776300e-14 1 
    0.639055 1.282185e-01 9.418800e-14 1 
    0.639330 1.290783e-01 9.473800e-14 1 
    0.639605 1.291007e-01 9.467300e-14 1 
    0.639880 1.278565e-01 9.368000e-14 1 
    0.640155 1.311095e-01 9.598100e-14 1 
    0.640430 1.368809e-01 1.001200e-13 1 
    0.640705 1.370532e-01 1.001600e-13 1 
    0.640980 1.363985e-01 9.959600e-14 1 
    0.641255 1.359262e-01 9.916600e-14 1 
    0.641530 1.311726e-01 9.561600e-14 1 
    0.641805 1.334888e-01 9.722100e-14 1 
    0.642080 1.332831e-01 9.698800e-14 1 
    0.642355 1.348868e-01 9.807100e-14 1 
    0.642630 1.340566e-01 9.738400e-14 1 
    0.642905 1.376530e-01 9.991100e-14 1 
    0.643180 1.318579e-01 9.562300e-14 1 
    0.643455 1.306885e-01 9.469400e-14 1 
    0.643730 1.291110e-01 9.347100e-14 1 
    0.644005 1.269803e-01 9.185000e-14 1 
    0.644280 1.291975e-01 9.337400e-14 1 
    0.644555 1.297149e-01 9.366800e-14 1 
    0.644830 1.286115e-01 9.279200e-14 1 
    0.645105 1.328800e-01 9.579000e-14 1 
    0.645380 1.359575e-01 9.792500e-14 1 
    0.645655 1.336486e-01 9.618000e-14 1 
    0.645930 1.321270e-01 9.500400e-14 1 
    0.646205 1.335841e-01 9.597000e-14 1 
    0.646480 1.340823e-01 9.624600e-14 1 
    0.646755 1.327701e-01 9.522300e-14 1 
    0.647030 1.308246e-01 9.374800e-14 1 
    0.647305 1.357544e-01 9.719800e-14 1 
    0.647580 1.349067e-01 9.650900e-14 1 
    0.647855 1.322134e-01 9.450200e-14 1 
    0.648130 1.339989e-01 9.569700e-14 1 
    0.648405 1.313729e-01 9.374200e-14 1 
    0.648680 1.350848e-01 9.630900e-14 1 
    0.648955 1.357581e-01 9.670700e-14 1 
    0.649230 1.365855e-01 9.721400e-14 1 
    0.649505 1.380287e-01 9.815800e-14 1 
    0.649780 1.362372e-01 9.680200e-14 1 
    0.650055 1.346383e-01 9.558500e-14 1 
    0.650330 1.360676e-01 9.651800e-14 1 
    0.650605 1.386081e-01 9.823700e-14 1 
    0.650880 1.330343e-01 9.420700e-14 1 
    0.651155 1.344965e-01 9.516200e-14 1 
    0.651430 1.367984e-01 9.670900e-14 1 
    0.651705 1.378852e-01 9.739500e-14 1 
    0.651980 1.410309e-01 9.953300e-14 1 
    0.652255 1.403104e-01 9.894100e-14 1 
    0.652530 1.401307e-01 9.873100e-14 1 
    0.652805 1.370981e-01 9.651300e-14 1 
    0.653080 1.349744e-01 9.493800e-14 1 
    0.653355 1.356374e-01 9.532400e-14 1 
    0.653630 1.331925e-01 9.352700e-14 1 
    0.653905 1.332048e-01 9.345700e-14 1 
    0.654180 1.364851e-01 9.567800e-14 1 
    0.654455 1.411671e-01 9.887700e-14 1 
    0.654730 1.393996e-01 9.755700e-14 1 
    0.655005 1.456991e-01 1.018800e-13 1 
    0.655280 1.398243e-01 9.769000e-14 1 
    0.655555 1.402884e-01 9.793200e-14 1 
    0.655830 1.406455e-01 9.809900e-14 1 
    0.656105 1.346221e-01 9.381900e-14 1 
    0.656380 1.366722e-01 9.516800e-14 1 
    0.656655 1.342815e-01 9.342500e-14 1 
    0.656930 1.318507e-01 9.165700e-14 1 
    0.657205 1.352423e-01 9.393600e-14 1 
    0.657480 1.262906e-01 8.764500e-14 1 
    0.657755 1.291998e-01 8.958900e-14 1 
    0.658030 1.357119e-01 9.402600e-14 1 
    0.658305 1.355668e-01 9.384700e-14 1 
    0.658580 1.386569e-01 9.590600e-14 1 
    0.658855 1.428098e-01 9.869600e-14 1 
    0.659130 1.420659e-01 9.810000e-14 1 
    0.659405 1.438585e-01 9.925500e-14 1 
    0.659680 1.423118e-01 9.810600e-14 1 
    0.659955 1.467627e-01 1.010900e-13 1 
    0.660230 1.447157e-01 9.959700e-14 1 
    0.660505 1.416791e-01 9.742600e-14 1 
    0.660780 1.402893e-01 9.639000e-14 1 
    0.661055 1.415102e-01 9.714800e-14 1 
    0.661330 1.470395e-01 1.008600e-13 1 
    0.661605 1.468554e-01 1.006500e-13 1 
    0.661880 1.484524e-01 1.016600e-13 1 
    0.662155 1.511334e-01 1.034100e-13 1 
    0.662430 1.448216e-01 9.900900e-14 1 
    0.662705 1.447150e-01 9.885400e-14 1 
    0.662980 1.414785e-01 9.656300e-14 1 
    0.663255 1.413040e-01 9.636400e-14 1 
    0.663530 1.366546e-01 9.311600e-14 1 
    0.663805 1.380310e-01 9.397600e-14 1 
    0.664080 1.341396e-01 9.125100e-14 1 
    0.664355 1.322631e-01 8.990000e-14 1 
    0.664630 1.337892e-01 9.086200e-14 1 
    0.664905 1.386569e-01 9.409000e-14 1 
    0.665180 1.410739e-01 9.565100e-14 1 
    0.665455 1.431080e-01 9.695000e-14 1 
    0.665730 1.456181e-01 9.856900e-14 1 
    0.666005 1.473959e-01 9.969000e-14 1 
    0.666280 1.509063e-01 1.019800e-13 1 
    0.666555 1.501275e-01 1.013700e-13 1 
    0.666830 1.512593e-01 1.020500e-13 1 
    0.667105 1.493666e-01 1.006900e-13 1 
    0.667380 1.473014e-01 9.921600e-14 1 
    0.667655 1.470082e-01 9.893700e-14 1 
    0.667930 1.470818e-01 9.890500e-14 1 
    0.668205 1.514819e-01 1.017800e-13 1 
    0.668480 1.505937e-01 1.011000e-13 1 
    0.668755 1.479492e-01 9.924300e-14 1 
    0.669030 1.472861e-01 9.871700e-14 1 
    0.669305 1.511597e-01 1.012300e-13 1 
    0.669580 1.505666e-01 1.007500e-13 1 
    0.669855 1.511989e-01 1.010900e-13 1 
    0.670130 1.539576e-01 1.028500e-13 1 
    0.670405 1.516270e-01 1.012100e-13 1 
    0.670680 1.515115e-01 1.010500e-13 1 
    0.670955 1.477823e-01 9.848200e-14 1 
    0.671230 1.444537e-01 9.618500e-14 1 
    0.671505 1.452290e-01 9.662200e-14 1 
    0.671780 1.439414e-01 9.568700e-14 1 
    0.672055 1.441361e-01 9.573800e-14 1 
    0.672330 1.428016e-01 9.477400e-14 1 
    0.672605 1.444943e-01 9.581900e-14 1 
    0.672880 1.451150e-01 9.615200e-14 1 
    0.673155 1.468679e-01 9.723400e-14 1 
    0.673430 1.477982e-01 9.777000e-14 1 
    0.673705 1.489054e-01 9.842200e-14 1 
    0.673980 1.464151e-01 9.669700e-14 1 
    0.674255 1.476105e-01 9.740700e-14 1 
    0.674530 1.493173e-01 9.845300e-14 1 
    0.674805 1.477619e-01 9.734800e-14 1 
    0.675080 1.491963e-01 9.821300e-14 1 
    0.675355 1.479040e-01 9.728300e-14 1 
    0.675630 1.470370e-01 9.663400e-14 1 
    0.675905 1.465491e-01 9.623500e-14 1 
    0.676180 1.531380e-01 1.004800e-13 1 
    0.676455 1.470912e-01 9.643400e-14 1 
    0.676730 1.480687e-01 9.699600e-14 1 
    0.677642 1.490100e-01 9.735000e-14 0 
    0.679204 1.479693e-01 9.622600e-14 0 
    0.680769 1.462606e-01 9.467800e-14 0 
    0.682339 1.469205e-01 9.466800e-14 0 
    0.683912 1.452241e-01 9.314500e-14 0 
    0.685488 1.462153e-01 9.335000e-14 0 
    0.687068 1.462009e-01 9.291200e-14 0 
    0.688652 1.502808e-01 9.506600e-14 0 
    0.690240 1.506126e-01 9.483800e-14 0 
    0.691831 1.523400e-01 9.548500e-14 0 
    0.693426 1.533814e-01 9.569600e-14 0 
    0.695024 1.471380e-01 9.137900e-14 0 
    0.696626 1.512448e-01 9.349800e-14 0 
    0.698233 1.526292e-01 9.392000e-14 0 
    0.699842 1.540240e-01 9.434300e-14 0 
    0.701455 1.540082e-01 9.390000e-14 0 
    0.703072 1.579420e-01 9.585600e-14 0 
    0.704693 1.586546e-01 9.584600e-14 0 
    0.706318 1.604747e-01 9.650000e-14 0 
    0.707946 1.593526e-01 9.538500e-14 0 
    0.709578 1.564277e-01 9.320400e-14 0 
    0.711214 1.582222e-01 9.384000e-14 0 
    0.712853 1.604056e-01 9.469800e-14 0 
    0.714496 1.607596e-01 9.447100e-14 0 
    0.716143 1.596348e-01 9.337900e-14 0 
    0.717794 1.570656e-01 9.145400e-14 0 
    0.719449 1.574112e-01 9.123400e-14 0 
    0.721108 1.573943e-01 9.080500e-14 0 
    0.722770 1.573772e-01 9.037800e-14 0 
    0.724436 1.584499e-01 9.057600e-14 0 
    0.726106 1.573430e-01 8.953000e-14 0 
    0.727780 1.495541e-01 8.470700e-14 0 
    0.729457 1.547918e-01 8.727100e-14 0 
    0.731139 1.631936e-01 9.158500e-14 0 
    0.732825 1.613084e-01 9.011100e-14 0 
    0.734514 1.605494e-01 8.927500e-14 0 
    0.736207 1.712216e-01 9.477200e-14 0 
    0.737904 1.680788e-01 9.260500e-14 0 
    0.739605 1.696149e-01 9.302200e-14 0 
    0.741310 1.727481e-01 9.430500e-14 0 
    0.743019 1.787994e-01 9.716000e-14 0 
    0.744732 1.751138e-01 9.472000e-14 0 
    0.746449 1.799990e-01 9.691500e-14 0 
    0.748170 1.734691e-01 9.297000e-14 0 
    0.749894 1.837262e-01 9.801500e-14 0 
    0.751623 1.786990e-01 9.489500e-14 0 
    0.753356 1.828423e-01 9.664900e-14 0 
    0.755092 1.866489e-01 9.820800e-14 0 
    0.756833 1.844919e-01 9.662700e-14 0 
    0.758578 1.853226e-01 9.661600e-14 0 
    0.760326 1.861564e-01 9.660500e-14 0 
    0.762079 1.865628e-01 9.637100e-14 0 
    0.763836 1.926537e-01 9.906000e-14 0 
    0.765597 1.886800e-01 9.657100e-14 0 
    0.767361 1.921650e-01 9.790300e-14 0 
    0.769130 1.856200e-01 9.413400e-14 0 
    0.770904 1.855997e-01 9.369100e-14 0 
    0.772681 1.907769e-01 9.586200e-14 0 
    0.774462 1.881366e-01 9.410100e-14 0 
    0.776247 1.715627e-01 8.541700e-14 0 
    0.778037 1.825468e-01 9.046800e-14 0 
    0.779830 1.747110e-01 8.618700e-14 0 
    0.781628 1.808308e-01 8.879600e-14 0 
    0.783430 1.858739e-01 9.085300e-14 0 
    0.785236 1.824609e-01 8.877500e-14 0 
    0.787046 1.849776e-01 8.958600e-14 0 
    0.788860 1.811619e-01 8.733500e-14 0 
    0.790679 1.875061e-01 8.997800e-14 0 
    0.792501 1.918507e-01 9.164000e-14 0 
    0.794328 1.918277e-01 9.120800e-14 0 
    0.796159 1.953711e-01 9.246600e-14 0 
    0.797995 1.922233e-01 9.055800e-14 0 
    0.799834 1.891268e-01 8.869000e-14 0 
    0.801678 1.869385e-01 8.726100e-14 0 
    0.803526 1.877799e-01 8.725100e-14 0 
    0.805378 1.921296e-01 8.886200e-14 0 
    0.807235 1.956775e-01 9.008700e-14 0 
    0.809096 1.938618e-01 8.884100e-14 0 
    0.810961 1.983518e-01 9.048100e-14 0 
    0.812831 1.933676e-01 8.780200e-14 0 
    0.814704 2.010609e-01 9.087600e-14 0 
    0.816582 2.047739e-01 9.212900e-14 0 
    0.818465 2.005502e-01 8.981400e-14 0 
    0.820352 2.005248e-01 8.939000e-14 0 
    0.822243 2.042290e-01 9.062300e-14 0 
    0.824138 2.070438e-01 9.145000e-14 0 
    0.826038 2.041785e-01 8.977000e-14 0 
    0.827942 2.113268e-01 9.248600e-14 0 
    0.829851 1.976502e-01 8.610300e-14 0 
    0.831764 2.069406e-01 8.973600e-14 0 
    0.833681 1.913331e-01 8.258700e-14 0 
    0.835603 2.181395e-01 9.372500e-14 0 
    0.837529 2.191181e-01 9.371300e-14 0 
    0.839460 2.030596e-01 8.644600e-14 0 
    0.841395 2.030341e-01 8.603800e-14 0 
    0.843335 2.044147e-01 8.622500e-14 0 
    0.845279 2.096333e-01 8.802000e-14 0 
    0.847227 2.067293e-01 8.640200e-14 0 
    0.849180 2.043376e-01 8.501000e-14 0 
    0.851138 2.144330e-01 8.880000e-14 0 
    0.853100 2.124389e-01 8.757000e-14 0 
    0.855067 2.104658e-01 8.635800e-14 0 
    0.857038 2.133641e-01 8.714500e-14 0 
    0.859014 2.094445e-01 8.515100e-14 0 
    0.860994 1.853573e-01 7.501200e-14 0 
    0.862979 2.103547e-01 8.473700e-14 0 
    0.864968 1.651559e-01 6.622400e-14 0 
    0.866962 2.142101e-01 8.549900e-14 0 
    0.868960 2.171618e-01 8.627900e-14 0 
    0.870964 2.121895e-01 8.391600e-14 0 
    0.872971 2.166055e-01 8.526900e-14 0 
    0.874984 2.190832e-01 8.584800e-14 0 
    0.877001 1.938902e-01 7.562700e-14 0 
    0.879023 2.115911e-01 8.215200e-14 0 
    0.881049 2.110746e-01 8.157500e-14 0 
    0.883080 2.179600e-01 8.384900e-14 0 
    0.885116 2.194441e-01 8.403200e-14 0 
    0.887156 2.199189e-01 8.382700e-14 0 
    0.889201 2.234615e-01 8.478600e-14 0 
    0.891251 2.265398e-01 8.555900e-14 0 
    0.893305 2.259892e-01 8.495900e-14 0 
    0.895365 2.228586e-01 8.339700e-14 0 
    0.897429 2.142737e-01 7.981600e-14 0 
    0.899498 2.172236e-01 8.054300e-14 0 
    0.901571 2.207241e-01 8.146500e-14 0 
    0.903650 2.212015e-01 8.126600e-14 0 
    0.905733 2.186403e-01 7.995600e-14 0 
    0.907820 2.136328e-01 7.776600e-14 0 
    0.909913 2.247034e-01 8.142000e-14 0 
    0.912011 2.155517e-01 7.774500e-14 0 
    0.914113 2.096471e-01 7.526800e-14 0 
    0.916220 2.401217e-01 8.581300e-14 0 
    0.918333 2.367946e-01 8.423500e-14 0 
    0.920450 2.085961e-01 7.386300e-14 0 
    0.922571 2.245158e-01 7.913500e-14 0 
    0.924698 2.203877e-01 7.732300e-14 0 
    0.926830 2.249700e-01 7.856800e-14 0 
    0.928966 2.153101e-01 7.484900e-14 0 
    0.931108 2.280370e-01 7.890900e-14 0 
    0.933254 2.212798e-01 7.621900e-14 0 
    0.935406 2.279713e-01 7.816300e-14 0 
    0.937562 2.242943e-01 7.654900e-14 0 
    0.939723 2.242610e-01 7.618600e-14 0 
    0.941890 2.116875e-01 7.158400e-14 0 
    0.944061 2.418975e-01 8.142400e-14 0 
    0.946237 2.418618e-01 8.103800e-14 0 
    0.948418 2.396109e-01 7.991500e-14 0 
    0.950605 2.434673e-01 8.082800e-14 0 
    0.952796 2.406480e-01 7.952500e-14 0 
    0.954993 2.462158e-01 8.099100e-14 0 
    0.957194 2.444873e-01 8.005300e-14 0 
    0.959401 2.484234e-01 8.096800e-14 0 
    0.961612 2.461083e-01 7.984500e-14 0 
    0.963829 2.477770e-01 8.001700e-14 0 
    0.966051 2.443416e-01 7.854500e-14 0 
    0.968278 2.482759e-01 7.944300e-14 0 
    0.970510 2.522726e-01 8.035100e-14 0 
    0.972747 2.505004e-01 7.942000e-14 0 
    0.974990 2.521988e-01 7.959100e-14 0 
    0.977237 2.492753e-01 7.830700e-14 0 
    0.979490 2.503876e-01 7.829500e-14 0 
    0.981748 2.503514e-01 7.792400e-14 0 
    0.984011 2.497382e-01 7.737600e-14 0 
    0.986279 2.502747e-01 7.718600e-14 0 
    0.988553 2.519708e-01 7.735200e-14 0 
    0.990832 2.496226e-01 7.627900e-14 0 
    0.993116 2.554003e-01 7.768600e-14 0 
    0.995405 2.547724e-01 7.713900e-14 0 
    0.997700 2.559087e-01 7.712700e-14 0 
    1.000000 2.546967e-01 7.640900e-14 0 
    1.002305 2.529019e-01 7.552200e-14 0 
    1.004615 2.557914e-01 7.603400e-14 0 
    1.006931 2.569349e-01 7.602300e-14 0 
    1.009253 2.580806e-01 7.601100e-14 0 
    1.011580 2.580407e-01 7.565000e-14 0 
    1.013912 2.580016e-01 7.529100e-14 0 
    1.018591 2.567362e-01 7.423500e-14 0 
    1.023294 2.608263e-01 7.472600e-14 0 
    1.030386 2.613045e-01 7.383600e-14 0 
    1.035142 2.630329e-01 7.364300e-14 0 
    1.039921 2.653807e-01 7.361900e-14 0 
    1.042318 2.647296e-01 7.310100e-14 0 
    1.061696 2.649968e-01 7.052800e-14 0 
    1.081434 2.636325e-01 6.762700e-14 0 
    1.104079 2.642406e-01 6.503100e-14 0 
    1.122019 2.624233e-01 6.253500e-14 0 
    1.142879 2.642387e-01 6.069000e-14 0 
    1.164126 2.697730e-01 5.972000e-14 0 
    1.183041 2.697749e-01 5.782600e-14 0 
    1.205036 2.703929e-01 5.586200e-14 0 
    1.224616 2.716428e-01 5.434000e-14 0 
    1.244514 2.747908e-01 5.322600e-14 0 
    1.264737 2.760574e-01 5.177500e-14 0 
    1.285287 2.779703e-01 5.048000e-14 0 
    1.306171 2.792516e-01 4.910400e-14 0 
    1.324342 2.811882e-01 4.809700e-14 0 
    1.345861 2.818388e-01 4.667900e-14 0 
    1.364584 2.837886e-01 4.572100e-14 0 
    1.386756 2.877395e-01 4.488700e-14 0 
    1.406047 2.857576e-01 4.336300e-14 0 
    1.425607 2.837913e-01 4.189100e-14 0 
    1.445439 2.864143e-01 4.112600e-14 0 
    1.465547 2.951187e-01 4.122100e-14 0 
    1.485935 2.937674e-01 3.991400e-14 0 
    1.506607 3.033901e-01 4.009800e-14 0 
    1.527566 3.118900e-01 4.009800e-14 0 
    1.548817 3.235947e-01 4.046900e-14 0 
    1.566752 3.280968e-01 4.009800e-14 0 
    1.588548 3.318971e-01 3.945700e-14 0 
    1.606941 3.296082e-01 3.829300e-14 0 
    1.629296 3.396214e-01 3.838100e-14 0 
    1.648162 3.443447e-01 3.802900e-14 0 
    1.671091 3.467317e-01 3.724900e-14 0 
    1.690442 3.491409e-01 3.665400e-14 0 
    1.710014 3.491433e-01 3.582000e-14 0 
    1.729816 3.475314e-01 3.484300e-14 0 
    1.749847 3.411947e-01 3.342900e-14 0 
    1.770110 3.388443e-01 3.244300e-14 0 
    1.790605 3.326609e-01 3.112600e-14 0 
    1.811340 3.288499e-01 3.006900e-14 0 
    1.832314 3.221065e-01 2.878200e-14 0 
    1.853532 3.206313e-01 2.799800e-14 0 
    1.870681 3.162217e-01 2.710900e-14 0 
    1.892343 3.104575e-01 2.600900e-14 0 
    1.914256 3.090291e-01 2.530000e-14 0 
    1.931967 3.076075e-01 2.472400e-14 0 
    1.954339 3.033909e-01 2.383000e-14 0 
    1.972423 2.964784e-01 2.286200e-14 0 
    1.995263 2.937635e-01 2.213700e-14 0 
    2.013724 2.903981e-01 2.148400e-14 0 
    2.032357 2.903999e-01 2.109200e-14 0 
    2.055892 2.864147e-01 2.032900e-14 0 
    2.074913 2.870750e-01 2.000400e-14 0 
    2.094113 2.837880e-01 1.941400e-14 0 
    2.113488 2.818422e-01 1.892900e-14 0 
    2.133045 2.811826e-01 1.854000e-14 0 
    2.152783 2.792580e-01 1.807700e-14 0 
    2.177709 2.786170e-01 1.762500e-14 0 
    2.197860 2.747961e-01 1.706600e-14 0 
    2.218197 2.741646e-01 1.671600e-14 0 
    2.233572 2.697801e-01 1.622300e-14 0 
    2.254240 2.672921e-01 1.578000e-14 0 
    2.275097 2.654632e-01 1.538600e-14 0 
    2.296149 2.624200e-01 1.493200e-14 0 
    2.317393 2.404288e-01 1.343100e-14 0 
    2.338837 2.426562e-01 1.330800e-14 0 
    2.355050 2.157680e-01 1.167100e-14 0 
    2.376840 2.079721e-01 1.104400e-14 0 
    2.398834 2.142940e-01 1.117200e-14 0 
    2.415460 1.995186e-01 1.025900e-14 0 
    2.437811 1.972416e-01 9.956800e-15 0 
    2.460366 1.981520e-01 9.820200e-15 0 
    2.477422 1.879319e-01 9.185900e-15 0 
    2.500344 1.887978e-01 9.059800e-15 0 
    2.517677 1.633039e-01 7.728900e-15 0 
    2.540974 1.636821e-01 7.605400e-15 0 
    2.558586 1.667249e-01 7.640500e-15 0 
    2.582261 1.678798e-01 7.553000e-15 0 
    2.600159 1.721870e-01 7.640500e-15 0 
    2.618184 1.710020e-01 7.483800e-15 0 
    2.642408 1.733803e-01 7.449400e-15 0 
    2.660726 1.713962e-01 7.263100e-15 0 
    2.679168 1.713949e-01 7.163400e-15 0 
    2.703959 1.713961e-01 7.032700e-15 0 
    2.722701 1.710005e-01 6.920200e-15 0 
    2.741575 1.702151e-01 6.793900e-15 0 
    2.760578 1.690444e-01 6.654600e-15 0 
    2.779712 1.686554e-01 6.548200e-15 0 
    2.805433 1.678794e-01 6.399100e-15 0 
    2.824881 1.674939e-01 6.296800e-15 0 
    2.844461 1.663420e-01 6.167700e-15 0 
    2.864177 1.655769e-01 6.055100e-15 0 
    2.884032 1.644370e-01 5.930900e-15 0 
    2.904021 1.629293e-01 5.795900e-15 0 
    2.924153 1.621806e-01 5.690100e-15 0 
    2.944421 1.614340e-01 5.586200e-15 0 
    2.964832 1.599558e-01 5.459100e-15 0 
    2.985382 1.588535e-01 5.347100e-15 0 
    3.006077 1.581237e-01 5.249500e-15 0 
    3.026913 1.570371e-01 5.141900e-15 0 
    3.047896 1.563142e-01 5.048000e-15 0 
    3.069022 1.552391e-01 4.944500e-15 0 
    3.083187 1.545239e-01 4.876600e-15 0 
    3.104560 1.541709e-01 4.798700e-15 0 
    3.126079 1.534620e-01 4.711100e-15 0 
    3.147749 1.527566e-01 4.625100e-15 0 
    3.169567 1.524035e-01 4.551100e-15 0 
    3.184196 1.510084e-01 4.468100e-15 0 
    3.206270 1.503132e-01 4.386500e-15 0 
    3.228493 1.499685e-01 4.316400e-15 0 
    3.250874 1.492791e-01 4.237600e-15 0 
    3.265878 1.482497e-01 4.169800e-15 0 
    3.288518 1.479115e-01 4.103200e-15 0 
    3.311311 1.475713e-01 4.037600e-15 0 
    3.326594 1.479112e-01 4.009800e-15 0 
    3.349655 1.475717e-01 3.945700e-15 0 
    3.372872 1.445430e-01 3.811700e-15 0 
    3.388443 1.425587e-01 3.724900e-15 0 
    3.411929 1.412550e-01 3.640200e-15 0 
    3.427677 1.396365e-01 3.565500e-15 0 
    3.451438 1.386765e-01 3.492400e-15 0 
    3.467368 1.374028e-01 3.428600e-15 0 
    3.491405 1.364579e-01 3.358300e-15 0 
    3.507520 1.348950e-01 3.289400e-15 0 
    3.531830 1.339689e-01 3.222000e-15 0 
    3.548136 1.327413e-01 3.163200e-15 0 
    3.572728 1.318263e-01 3.098300e-15 0 
    3.589218 1.303149e-01 3.034700e-15 0 
    3.614099 1.294198e-01 2.972500e-15 0 
    3.630780 1.282312e-01 2.918200e-15 0 
    3.655950 1.276450e-01 2.865000e-15 0 
    3.672823 1.261820e-01 2.806200e-15 0 
    3.689775 1.247400e-01 2.748700e-15 0 
    3.715354 1.238804e-01 2.692300e-15 0 
    3.732502 1.221799e-01 2.631000e-15 0 
    3.749729 1.207794e-01 2.577000e-15 0 
    3.775723 1.205019e-01 2.535800e-15 0 
    3.793150 1.185762e-01 2.472400e-15 0 
    3.810657 1.180324e-01 2.438500e-15 0 
    3.837073 1.172206e-01 2.388500e-15 0 
    3.854783 1.161456e-01 2.344900e-15 0 
    3.872575 1.150807e-01 2.302100e-15 0 
    3.899421 1.145530e-01 2.260100e-15 0 
    3.917418 1.129785e-01 2.208600e-15 0 
    3.935499 1.119432e-01 2.168300e-15 0 
    3.953667 1.109158e-01 2.128700e-15 0 
    3.971915 1.099016e-01 2.089900e-15 0 
    3.999450 1.091433e-01 2.047000e-15 0 
    4.017909 1.081406e-01 2.009600e-15 0 
    4.036454 1.066592e-01 1.963900e-15 0 
    4.055084 1.059249e-01 1.932500e-15 0 
    4.073804 1.051957e-01 1.901600e-15 0 
    4.102040 1.044716e-01 1.862600e-15 0 
    4.120973 1.035135e-01 1.828600e-15 0 
    4.139998 1.028032e-01 1.799400e-15 0 
    4.159106 1.020937e-01 1.770600e-15 0 
    4.178302 1.011587e-01 1.738300e-15 0 
    4.197591 1.002330e-01 1.706600e-15 0 
    4.216965 9.954214e-02 1.679300e-15 0 
    4.236428 9.862652e-02 1.648600e-15 0 
    4.255986 9.772188e-02 1.618500e-15 0 
    4.275629 9.727322e-02 1.596300e-15 0 
    4.295363 9.638355e-02 1.567200e-15 0 
    4.325140 9.615937e-02 1.542100e-15 0 
    4.345102 9.310942e-02 1.479500e-15 0 
    4.365157 8.995040e-02 1.416200e-15 0 
    4.385309 9.057129e-02 1.412900e-15 0 
    4.405549 8.749514e-02 1.352400e-15 0 
    4.425883 8.630013e-02 1.321700e-15 0 
    4.446310 8.550384e-02 1.297500e-15 0 
    4.466837 8.336876e-02 1.253500e-15 0 
    4.487454 8.260296e-02 1.230600e-15 0 
    4.497797 8.165573e-02 1.210900e-15 0 
    4.518562 8.016554e-02 1.177900e-15 0 
    4.539417 8.035087e-02 1.169800e-15 0 
    4.560368 7.943051e-02 1.145800e-15 0 
    4.581416 7.852124e-02 1.122300e-15 0 
    4.602567 7.852063e-02 1.112000e-15 0 
    4.623810 7.816389e-02 1.096800e-15 0 
    4.645151 7.655672e-02 1.064400e-15 0 
    4.666595 7.709096e-02 1.062000e-15 0 
    4.688134 7.638296e-02 1.042600e-15 0 
    4.709772 7.620979e-02 1.030700e-15 0 
    4.720628 7.603414e-02 1.023600e-15 0 
    4.742421 7.533587e-02 1.004900e-15 0 
    4.764310 7.481702e-02 9.888300e-16 0 
    4.786299 7.533512e-02 9.865500e-16 0 
    4.808395 7.430210e-02 9.641000e-16 0 
    4.830588 7.430197e-02 9.552600e-16 0 
    4.841723 7.362048e-02 9.421500e-16 0 
    4.864070 7.261001e-02 9.207000e-16 0 
    4.886525 7.345150e-02 9.228300e-16 0 
    4.909079 7.261045e-02 9.039000e-16 0 
    4.931736 7.194453e-02 8.874000e-16 0 
    4.943104 7.128537e-02 8.752300e-16 0 
    4.965924 7.079425e-02 8.612300e-16 0 
    4.988845 7.079472e-02 8.533400e-16 0 
    5.011870 7.030680e-02 8.396900e-16 0 
    5.023429 7.014528e-02 8.339100e-16 0 
    5.046614 6.950218e-02 8.186900e-16 0 
    5.069906 6.918302e-02 8.074600e-16 0 
    5.093306 6.902412e-02 7.982200e-16 0 
    5.105052 6.791989e-02 7.818400e-16 0 
    5.128614 6.792054e-02 7.746800e-16 0 
    5.140436 6.776368e-02 7.693400e-16 0 
    5.152285 6.776408e-02 7.658100e-16 0 
    5.164162 6.745282e-02 7.587900e-16 0 
    5.176071 6.714271e-02 7.518300e-16 0 
    5.188002 6.698875e-02 7.466600e-16 0 
    5.199961 6.683467e-02 7.415200e-16 0 
    5.211947 6.652740e-02 7.347200e-16 0 
    5.223961 6.652699e-02 7.313400e-16 0 
    5.236003 6.652701e-02 7.279800e-16 0 
    5.248072 6.622169e-02 7.213100e-16 0 
    5.260175 6.591691e-02 7.146900e-16 0 
    5.272300 6.576527e-02 7.097700e-16 0 
    5.284453 6.546376e-02 7.032700e-16 0 
    5.296634 6.516273e-02 6.968200e-16 0 
    5.308843 6.516285e-02 6.936200e-16 0 
    5.321080 6.516254e-02 6.904300e-16 0 
    5.333352 6.531269e-02 6.888400e-16 0 
    5.345646 6.501310e-02 6.825300e-16 0 
    5.357968 6.441652e-02 6.731600e-16 0 
    5.370318 6.426872e-02 6.685300e-16 0 
    5.382697 6.426885e-02 6.654600e-16 0 
    5.395105 6.412113e-02 6.608800e-16 0 
    5.407541 6.397358e-02 6.563300e-16 0 
    5.420011 6.382636e-02 6.518100e-16 0 
    5.432505 6.382584e-02 6.488100e-16 0 
    5.445027 6.367964e-02 6.443500e-16 0 
    5.457579 6.353275e-02 6.399100e-16 0 
    5.470159 6.338712e-02 6.355100e-16 0 
    5.482768 6.309550e-02 6.296800e-16 0 
    5.495406 6.266091e-02 6.224700e-16 0 
    5.508079 6.266102e-02 6.196100e-16 0 
    5.520776 6.266171e-02 6.167700e-16 0 
    5.533502 6.237324e-02 6.111100e-16 0 
    5.546257 6.208691e-02 6.055100e-16 0 
    5.559041 6.194390e-02 6.013400e-16 0 
    5.571855 6.180138e-02 5.972000e-16 0 
    5.584705 6.165947e-02 5.930900e-16 0 
    5.597578 6.194406e-02 5.930900e-16 0 
    5.610481 6.151752e-02 5.863000e-16 0 
    5.623413 6.109415e-02 5.795900e-16 0 
    5.636376 6.123530e-02 5.782600e-16 0 
    5.649368 6.109450e-02 5.742800e-16 0 
    5.662390 6.081324e-02 5.690100e-16 0 
    5.675448 6.081383e-02 5.664000e-16 0 
    5.688531 6.067385e-02 5.625000e-16 0 
    5.701643 6.025602e-02 5.560600e-16 0 
    5.714786 6.025545e-02 5.535000e-16 0 
    5.727959 6.025577e-02 5.509600e-16 0 
    5.741162 6.011746e-02 5.471700e-16 0 
    5.754402 5.984097e-02 5.421500e-16 0 
    5.767667 5.970357e-02 5.384200e-16 0 
    5.780962 5.984100e-02 5.371800e-16 0 
    5.794287 5.970310e-02 5.334800e-16 0 
    5.807643 5.951545e-02 5.293600e-16 0 
    5.821030 5.938578e-02 5.257800e-16 0 
    5.834448 5.925252e-02 5.221900e-16 0 
    5.847904 5.911691e-02 5.186000e-16 0 
    5.861383 5.897747e-02 5.150000e-16 0 
    5.874894 5.883437e-02 5.113900e-16 0 
    5.888436 5.868751e-02 5.077700e-16 0 
    5.902009 5.853689e-02 5.041400e-16 0 
    5.915614 5.838247e-02 5.005000e-16 0 
    5.929250 5.825702e-02 4.971300e-16 0 
    5.942924 5.812928e-02 4.937600e-16 0 
    5.956623 5.799783e-02 4.903800e-16 0 
    5.970353 5.786272e-02 4.869900e-16 0 
    5.984115 5.772513e-02 4.836000e-16 0 
    5.997909 5.758265e-02 4.801900e-16 0 
    6.011735 5.743762e-02 4.767800e-16 0 
    6.025599 5.728893e-02 4.733600e-16 0 
    6.039488 5.714846e-02 4.700300e-16 0 
    6.053410 5.702504e-02 4.668600e-16 0 
    6.067363 5.689801e-02 4.636800e-16 0 
    6.081349 5.676860e-02 4.605000e-16 0 
    6.095367 5.663556e-02 4.573100e-16 0 
    6.109417 5.649882e-02 4.541100e-16 0 
    6.123506 5.635848e-02 4.509000e-16 0 
    6.137621 5.621427e-02 4.476800e-16 0 
    6.151769 5.606754e-02 4.444600e-16 0 
    6.165950 5.594107e-02 4.414200e-16 0 
    6.180162 5.581857e-02 4.384300e-16 0 
    6.194408 5.569378e-02 4.354400e-16 0 
    6.208693 5.556418e-02 4.324300e-16 0 
    6.223005 5.543210e-02 4.294200e-16 0 
    6.237350 5.529761e-02 4.264100e-16 0 
    6.251727 5.515807e-02 4.233800e-16 0 
    6.266138 5.501609e-02 4.203500e-16 0 
    6.280582 5.487687e-02 4.173600e-16 0 
    6.295059 5.475897e-02 4.145500e-16 0 
    6.309576 5.463760e-02 4.117300e-16 0 
    6.324120 5.451383e-02 4.089100e-16 0 
    6.338698 5.438642e-02 4.060800e-16 0 
    6.353309 5.425531e-02 4.032400e-16 0 
    6.367954 5.412185e-02 4.004000e-16 0 
    6.382632 5.398463e-02 3.975500e-16 0 
    6.397352 5.384376e-02 3.946900e-16 0 
    6.412098 5.371675e-02 3.919500e-16 0 
    6.426879 5.359983e-02 3.893000e-16 0 
    6.441693 5.348067e-02 3.866500e-16 0 
    6.456541 5.335787e-02 3.839900e-16 0 
    6.471424 5.323141e-02 3.813200e-16 0 
    6.486341 5.310266e-02 3.786500e-16 0 
    6.501300 5.297029e-02 3.759700e-16 0 
    6.516286 5.283403e-02 3.732800e-16 0 
    6.531306 5.269537e-02 3.705900e-16 0 
    6.546361 5.258146e-02 3.680900e-16 0 
    6.561452 5.246541e-02 3.655900e-16 0 
    6.576576 5.234710e-02 3.630900e-16 0 
    6.591735 5.222517e-02 3.605800e-16 0 
    6.606937 5.210111e-02 3.580700e-16 0 
    6.622166 5.197321e-02 3.555500e-16 0 
    6.637431 5.184157e-02 3.530200e-16 0 
    6.652731 5.170760e-02 3.504900e-16 0 
    6.668066 5.158164e-02 3.480300e-16 0 
    6.683436 5.146981e-02 3.456800e-16 0 
    6.698849 5.135597e-02 3.433300e-16 0 
    6.714291 5.123835e-02 3.409700e-16 0 
    6.729768 5.111706e-02 3.386000e-16 0 
    6.745280 5.099354e-02 3.362300e-16 0 
    6.760829 5.086781e-02 3.338600e-16 0 
    6.776412 5.073827e-02 3.314800e-16 0 
    6.792033 5.060495e-02 3.290900e-16 0 
    6.807696 5.049103e-02 3.268400e-16 0 
    6.823389 5.038111e-02 3.246300e-16 0 
    6.839117 5.026750e-02 3.224100e-16 0 
    6.854882 5.015180e-02 3.201900e-16 0 
    6.870683 5.003237e-02 3.179600e-16 0 
    6.886520 4.991077e-02 3.157300e-16 0 
    6.902402 4.978551e-02 3.134900e-16 0 
    6.918312 4.965631e-02 3.112400e-16 0 
    6.934259 4.952968e-02 3.090200e-16 0 
    6.950243 4.942335e-02 3.069400e-16 0 
    6.966264 4.931500e-02 3.048600e-16 0 
    6.982322 4.920297e-02 3.027700e-16 0 
    6.998416 4.908720e-02 3.006700e-16 0 
    7.014556 4.896946e-02 2.985700e-16 0 
    7.030725 4.884946e-02 2.964700e-16 0 
    7.046931 4.872565e-02 2.943600e-16 0 
    7.063175 4.859799e-02 2.922400e-16 0 
    7.079456 4.848316e-02 2.902100e-16 0 
    7.095775 4.837798e-02 2.882500e-16 0 
    7.112139 4.827090e-02 2.862900e-16 0 
    7.128533 4.816000e-02 2.843200e-16 0 
    7.144965 4.804535e-02 2.823400e-16 0 
    7.161434 4.792861e-02 2.803600e-16 0 
    7.177942 4.780977e-02 2.783800e-16 0 
    7.194488 4.768710e-02 2.763900e-16 0 
    7.211072 4.756226e-02 2.744000e-16 0 
    7.227702 4.745975e-02 2.725500e-16 0 
    7.244362 4.735516e-02 2.707000e-16 0 
    7.261061 4.724684e-02 2.688400e-16 0 
    7.277798 4.713828e-02 2.669900e-16 0 
    7.294573 4.702592e-02 2.651300e-16 0 
    7.311388 4.690977e-02 2.632600e-16 0 
    7.328241 4.679152e-02 2.613900e-16 0 
    7.345141 4.667129e-02 2.595200e-16 0 
    7.362073 4.655609e-02 2.576900e-16 0 
    7.379043 4.645516e-02 2.559500e-16 0 
    7.396052 4.635230e-02 2.542100e-16 0 
    7.413101 4.624568e-02 2.524600e-16 0 
    7.430188 4.613707e-02 2.507100e-16 0 
    7.447323 4.602658e-02 2.489600e-16 0 
    7.464490 4.591214e-02 2.472000e-16 0 
    7.481696 4.579565e-02 2.454400e-16 0 
    7.498942 4.567524e-02 2.436700e-16 0 
    7.516227 4.557157e-02 2.420000e-16 0 
    7.533553 4.547353e-02 2.403700e-16 0 
    7.550919 4.536983e-02 2.387200e-16 0 
    7.568332 4.526620e-02 2.370800e-16 0 
    7.585778 4.515864e-02 2.354300e-16 0 
    7.603263 4.504718e-02 2.337700e-16 0 
    7.620790 4.493568e-02 2.321200e-16 0 
    7.638356 4.481829e-02 2.304500e-16 0 
    7.655963 4.470472e-02 2.288100e-16 0 
    7.673619 4.460888e-02 2.272700e-16 0 
    7.691307 4.451110e-02 2.257300e-16 0 
    7.709036 4.440949e-02 2.241800e-16 0 
    7.726806 4.430600e-02 2.226300e-16 0 
    7.744617 4.419859e-02 2.210700e-16 0 
    7.762469 4.408926e-02 2.195100e-16 0 
    7.780362 4.397797e-02 2.179500e-16 0 
    7.798305 4.386279e-02 2.163800e-16 0 
    7.816280 4.375976e-02 2.148800e-16 0 
    7.834298 4.366509e-02 2.134300e-16 0 
    7.852356 4.356860e-02 2.119800e-16 0 
    7.870456 4.346823e-02 2.105200e-16 0 
    7.888598 4.336392e-02 2.090500e-16 0 
    7.906782 4.325982e-02 2.075900e-16 0 
    7.925016 4.315182e-02 2.061200e-16 0 
    7.943284 4.304183e-02 2.046500e-16 0 
    7.961594 4.292777e-02 2.031700e-16 0 
    7.979946 4.283511e-02 2.018000e-16 0 
    7.998341 4.274067e-02 2.004300e-16 0 
    8.016777 4.264444e-02 1.990600e-16 0 
    8.035265 4.254650e-02 1.976900e-16 0 
    8.053787 4.244450e-02 1.963100e-16 0 
    8.072352 4.234066e-02 1.949300e-16 0 
    8.090959 4.223277e-02 1.935400e-16 0 
    8.109609 4.212297e-02 1.921500e-16 0 
    8.128302 4.202007e-02 1.908000e-16 0 
    8.147038 4.193081e-02 1.895200e-16 0 
    8.165827 4.183549e-02 1.882200e-16 0 
    8.184650 4.174053e-02 1.869300e-16 0 
    8.203516 4.164380e-02 1.856400e-16 0 
    8.222426 4.154304e-02 1.843400e-16 0 
    8.241379 4.143819e-02 1.830300e-16 0 
    8.260376 4.133377e-02 1.817300e-16 0 
    8.279426 4.122530e-02 1.804200e-16 0 
    8.298510 4.113323e-02 1.791900e-16 0 
    8.317639 4.104173e-02 1.779700e-16 0 
    8.336812 4.095083e-02 1.767600e-16 0 
    8.356029 4.085589e-02 1.755400e-16 0 
    8.375290 4.075920e-02 1.743200e-16 0 
    8.394596 4.065841e-02 1.730900e-16 0 
    8.413955 4.055825e-02 1.718700e-16 0 
    8.433350 4.045385e-02 1.706400e-16 0 
    8.452789 4.034999e-02 1.694200e-16 0 
    8.472273 4.026346e-02 1.682800e-16 0 
    8.491803 4.017288e-02 1.671300e-16 0 
    8.511377 4.008301e-02 1.659900e-16 0 
    8.531005 3.998911e-02 1.648400e-16 0 
    8.550670 3.989341e-02 1.636900e-16 0 
    8.570380 3.979352e-02 1.625300e-16 0 
    8.590135 3.969433e-02 1.613800e-16 0 
    8.609937 3.959090e-02 1.602200e-16 0 
    8.629783 3.949808e-02 1.591100e-16 0 
    8.649675 3.941104e-02 1.580300e-16 0 
    8.669623 3.932244e-02 1.569500e-16 0 
    8.689607 3.923210e-02 1.558700e-16 0 
    8.709637 3.914008e-02 1.547900e-16 0 
    8.729713 3.904638e-02 1.537100e-16 0 
    8.749836 3.894844e-02 1.526200e-16 0 
    8.770005 3.884875e-02 1.515300e-16 0 
    8.790220 3.874474e-02 1.504300e-16 0 
    8.810492 3.866231e-02 1.494200e-16 0 
    8.830801 3.857821e-02 1.484100e-16 0 
    8.851157 3.848991e-02 1.473900e-16 0 
    8.871559 3.839996e-02 1.463700e-16 0 
    8.892009 3.830836e-02 1.453500e-16 0 
    8.912505 3.821509e-02 1.443300e-16 0 
    8.933059 3.811758e-02 1.433000e-16 0 
    8.953651 3.802095e-02 1.422800e-16 0 
    8.974289 3.792797e-02 1.412800e-16 0 
    8.994976 3.784411e-02 1.403200e-16 0 
    9.015710 3.776138e-02 1.393700e-16 0 
    9.036491 3.767436e-02 1.384100e-16 0 
    9.057321 3.758573e-02 1.374500e-16 0 
    9.078209 3.749557e-02 1.364900e-16 0 
    9.099135 3.740093e-02 1.355200e-16 0 
    9.120109 3.730739e-02 1.345600e-16 0 
    9.141132 3.720940e-02 1.335900e-16 0 
    9.162202 3.712650e-02 1.326800e-16 0 
    9.183322 3.704485e-02 1.317800e-16 0 
    9.204501 3.696175e-02 1.308800e-16 0 
    9.225717 3.687416e-02 1.299700e-16 0 
    9.246984 3.678784e-02 1.290700e-16 0 
    9.268298 3.669705e-02 1.281600e-16 0 
    9.289662 3.660753e-02 1.272600e-16 0 
    9.311076 3.651063e-02 1.263400e-16 0 
    9.332538 3.641785e-02 1.254400e-16 0 
    9.354061 3.634103e-02 1.246000e-16 0 
    9.375623 3.625970e-02 1.237500e-16 0 
    9.397234 3.617685e-02 1.229000e-16 0 
    9.418895 3.609246e-02 1.220500e-16 0 
    9.440607 3.600653e-02 1.212000e-16 0 
    9.462368 3.591902e-02 1.203500e-16 0 
    9.484190 3.582703e-02 1.194900e-16 0 
    9.506052 3.573334e-02 1.186300e-16 0 
    9.527963 3.565013e-02 1.178100e-16 0 
    9.549927 3.557147e-02 1.170100e-16 0 
    9.571940 3.549132e-02 1.162100e-16 0 
    9.594004 3.540968e-02 1.154100e-16 0 
    9.616119 3.532653e-02 1.146100e-16 0 
    9.638295 3.524192e-02 1.138100e-16 0 
    9.660512 3.515260e-02 1.130000e-16 0 
    9.682780 3.506483e-02 1.122000e-16 0 
    9.705099 3.497235e-02 1.113900e-16 0 
    9.727470 3.489721e-02 1.106400e-16 0 
    9.749893 3.482063e-02 1.098900e-16 0 
    9.772367 3.473941e-02 1.091300e-16 0 
    9.794904 3.465998e-02 1.083800e-16 0 
    9.817482 3.457578e-02 1.076200e-16 0 
    9.840112 3.449329e-02 1.068700e-16 0 
    9.862794 3.440606e-02 1.061100e-16 0 
    9.885528 3.431730e-02 1.053500e-16 0 
    9.908315 3.423352e-02 1.046100e-16 0 
    9.931166 3.415818e-02 1.039000e-16 0 
    9.954058 3.408134e-02 1.031900e-16 0 
    9.977002 3.400306e-02 1.024800e-16 0 
   10.000000 3.392334e-02 1.017700e-16 0 
   10.023051 3.384215e-02 1.010600e-16 0 
   10.046155 3.375949e-02 1.003500e-16 0 
   10.069312 3.367230e-02 9.963100e-17 0 
   10.092534 3.358435e-02 9.891400e-17 0 
   10.115797 3.350877e-02 9.823800e-17 0 
   10.139115 3.343521e-02 9.757200e-17 0 
   10.162486 3.336025e-02 9.690600e-17 0 
   10.185912 3.328320e-02 9.623800e-17 0 
   10.209391 3.320404e-02 9.556800e-17 0 
   10.232935 3.312280e-02 9.489600e-17 0 
   10.256523 3.304004e-02 9.422400e-17 0 
   10.280165 3.295475e-02 9.354900e-17 0 
   10.303862 3.287081e-02 9.288200e-17 0 
   10.327612 3.280031e-02 9.225700e-17 0 
   10.351419 3.272775e-02 9.163000e-17 0 
   10.375279 3.265346e-02 9.100200e-17 0 
   10.399206 3.257715e-02 9.037200e-17 0 
   10.423177 3.249863e-02 8.974000e-17 0 
   10.447203 3.241869e-02 8.910800e-17 0 
   10.471285 3.233660e-02 8.847400e-17 0 
   10.495422 3.225232e-02 8.783800e-17 0 
   10.519615 3.217654e-02 8.722900e-17 0 
   10.543863 3.210641e-02 8.663900e-17 0 
   10.568179 3.203464e-02 8.604800e-17 0 
   10.592540 3.196109e-02 8.545600e-17 0 
   10.616956 3.188542e-02 8.486200e-17 0 
   10.641429 3.180799e-02 8.426700e-17 0 
   10.665959 3.172879e-02 8.367100e-17 0 
   10.690544 3.164741e-02 8.307300e-17 0 
   10.715198 3.156430e-02 8.247400e-17 0 
   10.739898 3.149622e-02 8.191800e-17 0 
   10.764654 3.142721e-02 8.136300e-17 0 
   10.789467 3.135612e-02 8.080600e-17 0 
   10.814338 3.128332e-02 8.024800e-17 0 
   10.839266 3.120839e-02 7.968800e-17 0 
   10.864251 3.113171e-02 7.912700e-17 0 
   10.889305 3.105333e-02 7.856500e-17 0 
   10.914406 3.097310e-02 7.800200e-17 0 
   10.939565 3.089705e-02 7.745300e-17 0 
   10.964781 3.083047e-02 7.693100e-17 0 
   10.990055 3.076179e-02 7.640700e-17 0 
   11.015388 3.069143e-02 7.588200e-17 0 
   11.040792 3.061943e-02 7.535600e-17 0 
   11.066241 3.054521e-02 7.482800e-17 0 
   11.091750 3.046967e-02 7.430000e-17 0 
   11.117317 3.039195e-02 7.377000e-17 0 
   11.142944 3.031245e-02 7.323900e-17 0 
   11.168629 3.024404e-02 7.273800e-17 0 
   11.194373 3.017811e-02 7.224600e-17 0 
   11.220190 3.011017e-02 7.175200e-17 0 
   11.246053 3.004046e-02 7.125700e-17 0 
   11.271976 2.996946e-02 7.076200e-17 0 
   11.297959 2.989633e-02 7.026500e-17 0 
   11.324001 2.982101e-02 6.976600e-17 0 
   11.350104 2.974437e-02 6.926700e-17 0 
   11.376279 2.966861e-02 6.877300e-17 0 
   11.402502 2.960488e-02 6.831000e-17 0 
   11.428786 2.953951e-02 6.784600e-17 0 
   11.455130 2.947201e-02 6.738000e-17 0 
   11.481534 2.940327e-02 6.691400e-17 0 
   11.508001 2.933283e-02 6.644700e-17 0 
   11.534527 2.926021e-02 6.597800e-17 0 
   11.561128 2.918637e-02 6.550900e-17 0 
   11.587777 2.911027e-02 6.503800e-17 0 
   11.614488 2.904183e-02 6.458700e-17 0 
   11.641260 2.897847e-02 6.415000e-17 0 
   11.668094 2.891389e-02 6.371300e-17 0 
   11.694990 2.884721e-02 6.327400e-17 0 
   11.721948 2.877928e-02 6.283500e-17 0 
   11.748980 2.870925e-02 6.239400e-17 0 
   11.776062 2.863790e-02 6.195300e-17 0 
   11.803207 2.856436e-02 6.151000e-17 0 
   11.830414 2.848952e-02 6.106700e-17 0 
   11.857684 2.842792e-02 6.065500e-17 0 
   11.885017 2.836561e-02 6.024400e-17 0 
   11.912426 2.830124e-02 5.983100e-17 0 
   11.939885 2.823560e-02 5.941800e-17 0 
   11.967407 2.816828e-02 5.900400e-17 0 
   11.994993 2.809878e-02 5.858800e-17 0 
   12.022642 2.802803e-02 5.817200e-17 0 
   12.050355 2.795555e-02 5.775500e-17 0 
   12.078132 2.788715e-02 5.734900e-17 0 
   12.105987 2.782687e-02 5.696200e-17 0 
   12.133891 2.776488e-02 5.657400e-17 0 
   12.161861 2.770124e-02 5.618500e-17 0 
   12.189895 2.763642e-02 5.579600e-17 0 
   12.217994 2.756941e-02 5.540500e-17 0 
   12.246157 2.750120e-02 5.501400e-17 0 
   12.274398 2.743132e-02 5.462200e-17 0 
   12.302692 2.735966e-02 5.422900e-17 0 
   12.331051 2.729789e-02 5.385800e-17 0 
   12.359474 2.723803e-02 5.349300e-17 0 
   12.387964 2.717704e-02 5.312800e-17 0 
   12.416520 2.711387e-02 5.276100e-17 0 
   12.445140 2.704954e-02 5.239400e-17 0 
   12.473841 2.698358e-02 5.202600e-17 0 
   12.502594 2.691585e-02 5.165700e-17 0 
   12.531413 2.684641e-02 5.128700e-17 0 
   12.560299 2.677837e-02 5.092200e-17 0 
   12.589252 2.672076e-02 5.057900e-17 0 
   12.618270 2.666151e-02 5.023500e-17 0 
   12.647370 2.660068e-02 4.989000e-17 0 
   12.676523 2.653865e-02 4.954500e-17 0 
   12.705744 2.647495e-02 4.919900e-17 0 
   12.735031 2.640956e-02 4.885200e-17 0 
   12.764387 2.634300e-02 4.850500e-17 0 
   12.793809 2.627416e-02 4.815600e-17 0 
   12.823300 2.621236e-02 4.782200e-17 0 
   12.852873 2.615554e-02 4.749900e-17 0 
   12.882499 2.609702e-02 4.717500e-17 0 
   12.912195 2.603685e-02 4.685000e-17 0 
   12.941958 2.597557e-02 4.652500e-17 0 
   12.971790 2.591261e-02 4.619900e-17 0 
   13.001691 2.584795e-02 4.587200e-17 0 
   13.031661 2.578158e-02 4.554400e-17 0 
   13.061714 2.571409e-02 4.521600e-17 0 
   13.091823 2.565853e-02 4.491100e-17 0 
   13.122000 2.560189e-02 4.460600e-17 0 
   13.152247 2.554419e-02 4.430100e-17 0 
   13.182564 2.548484e-02 4.399500e-17 0 
   13.212950 2.542380e-02 4.368800e-17 0 
   13.243422 2.536172e-02 4.338100e-17 0 
   13.273948 2.529788e-02 4.307300e-17 0 
   13.304547 2.523232e-02 4.276400e-17 0 
   13.335214 2.517036e-02 4.246300e-17 0 
   13.365953 2.511563e-02 4.217600e-17 0 
   13.396763 2.505985e-02 4.188900e-17 0 
   13.427642 2.500302e-02 4.160200e-17 0 
   13.458609 2.494399e-02 4.131300e-17 0 
   13.489633 2.488382e-02 4.102400e-17 0 
   13.520727 2.482195e-02 4.073400e-17 0 
   13.551894 2.475898e-02 4.044400e-17 0 
   13.583131 2.469429e-02 4.015300e-17 0 
   13.614441 2.463835e-02 3.987800e-17 0 
   13.645839 2.458454e-02 3.960800e-17 0 
   13.677294 2.452903e-02 3.933700e-17 0 
   13.708820 2.447247e-02 3.906600e-17 0 
   13.740420 2.441425e-02 3.879400e-17 0 
   13.772092 2.435496e-02 3.852200e-17 0 
   13.803839 2.429398e-02 3.824900e-17 0 
   13.835658 2.423127e-02 3.797500e-17 0 
   13.867564 2.416944e-02 3.770400e-17 0 
   13.899530 2.411742e-02 3.745000e-17 0 
   13.931570 2.406440e-02 3.719600e-17 0 
   13.963683 2.400973e-02 3.694100e-17 0 
   13.995870 2.395339e-02 3.668500e-17 0 
   14.028131 2.389602e-02 3.642900e-17 0 
   14.060467 2.383695e-02 3.617200e-17 0 
   14.092894 2.377622e-02 3.591400e-17 0 
   14.125378 2.371437e-02 3.565600e-17 0 
   14.157939 2.365879e-02 3.540900e-17 0 
   14.190573 2.360755e-02 3.517000e-17 0 
   14.223284 2.355468e-02 3.493000e-17 0 
   14.256070 2.350080e-02 3.469000e-17 0 
   14.288947 2.344462e-02 3.444800e-17 0 
   14.321883 2.338805e-02 3.420700e-17 0 
   14.354897 2.332977e-02 3.396500e-17 0 
   14.387986 2.326977e-02 3.372200e-17 0 
   14.421152 2.320872e-02 3.347900e-17 0 
   14.454392 2.315844e-02 3.325300e-17 0 
   14.487711 2.310790e-02 3.302800e-17 0 
   14.521122 2.305576e-02 3.280200e-17 0 
   14.554594 2.300188e-02 3.257500e-17 0 
   14.588144 2.294702e-02 3.234800e-17 0 
   14.621770 2.289044e-02 3.212000e-17 0 
   14.655475 2.283286e-02 3.189200e-17 0 
   14.689256 2.277425e-02 3.166400e-17 0 
   14.723133 2.271828e-02 3.144100e-17 0 
   14.757070 2.266925e-02 3.122900e-17 0 
   14.791086 2.261855e-02 3.101600e-17 0 
   14.825181 2.256689e-02 3.080300e-17 0 
   14.859355 2.251355e-02 3.058900e-17 0 
   14.893606 2.245922e-02 3.037500e-17 0 
   14.927938 2.240392e-02 3.016100e-17 0 
   14.962363 2.234693e-02 2.994600e-17 0 
   14.996853 2.228815e-02 2.973000e-17 0 
   15.031422 2.223813e-02 2.952700e-17 0 
   15.066070 2.218944e-02 2.932700e-17 0 
   15.100798 2.213983e-02 2.912700e-17 0 
   15.135606 2.208853e-02 2.892600e-17 0 
   15.170513 2.203556e-02 2.872400e-17 0 
   15.205481 2.198236e-02 2.852300e-17 0 
   15.240531 2.192742e-02 2.832100e-17 0 
   15.275661 2.187072e-02 2.811800e-17 0 
   15.310872 2.181461e-02 2.791700e-17 0 
   15.346166 2.176771e-02 2.772900e-17 0 
   15.381539 2.171991e-02 2.754100e-17 0 
   15.417011 2.167046e-02 2.735200e-17 0 
   15.452548 2.162005e-02 2.716300e-17 0 
   15.488169 2.156791e-02 2.697300e-17 0 
   15.523870 2.151483e-02 2.678300e-17 0 
   15.559653 2.145999e-02 2.659200e-17 0 
   15.595519 2.140419e-02 2.640100e-17 0 
   15.631469 2.135393e-02 2.621800e-17 0 
   15.667517 2.130771e-02 2.604100e-17 0 
   15.703631 2.125973e-02 2.586300e-17 0 
   15.739830 2.121086e-02 2.568500e-17 0 
   15.776111 2.116109e-02 2.550700e-17 0 
   15.812477 2.110957e-02 2.532800e-17 0 
   15.848925 2.105713e-02 2.514900e-17 0 
   15.885475 2.100295e-02 2.496900e-17 0 
   15.922092 2.094778e-02 2.478900e-17 0 
   15.958794 2.090269e-02 2.462200e-17 0 
   15.995580 2.085674e-02 2.445500e-17 0 
   16.032452 2.080906e-02 2.428700e-17 0 
   16.069406 2.076136e-02 2.412000e-17 0 
   16.106448 2.071191e-02 2.395200e-17 0 
   16.143592 2.066073e-02 2.378300e-17 0 
   16.180805 2.060860e-02 2.361400e-17 0 
   16.218103 2.055555e-02 2.344500e-17 0 
   16.255486 2.050509e-02 2.328000e-17 0 
   16.292956 2.046080e-02 2.312300e-17 0 
   16.330513 2.041479e-02 2.296500e-17 0 
   16.368173 2.036884e-02 2.280800e-17 0 
   16.405903 2.032020e-02 2.264900e-17 0 
   16.443720 2.027158e-02 2.249100e-17 0 
   16.481623 2.022117e-02 2.233200e-17 0 
   16.519616 2.016987e-02 2.217300e-17 0 
   16.557694 2.011674e-02 2.201300e-17 0 
   16.595861 2.007188e-02 2.186300e-17 0 
   16.634134 2.002806e-02 2.171500e-17 0 
   16.672477 1.998244e-02 2.156600e-17 0 
   16.710908 1.993691e-02 2.141800e-17 0 
   16.749428 1.988959e-02 2.126900e-17 0 
   16.788036 1.984047e-02 2.111900e-17 0 
   16.826734 1.979047e-02 2.096900e-17 0 
   16.865539 1.973963e-02 2.081900e-17 0 
   16.904416 1.968977e-02 2.067100e-17 0 
   16.943381 1.964763e-02 2.053200e-17 0 
   16.982437 1.960373e-02 2.039200e-17 0 
   17.021583 1.955900e-02 2.025200e-17 0 
   17.060819 1.951344e-02 2.011200e-17 0 
   17.100145 1.946704e-02 1.997200e-17 0 
   17.139581 1.941886e-02 1.983100e-17 0 
   17.179089 1.936978e-02 1.969000e-17 0 
   17.218688 1.931885e-02 1.954800e-17 0 
   17.258378 1.927398e-02 1.941300e-17 0 
   17.298161 1.923128e-02 1.928100e-17 0 
   17.338034 1.918877e-02 1.915000e-17 0 
   17.377998 1.914446e-02 1.901800e-17 0 
   17.418075 1.909937e-02 1.888600e-17 0 
   17.458225 1.905341e-02 1.875400e-17 0 
   17.498469 1.900561e-02 1.862100e-17 0 
   17.538803 1.895696e-02 1.848800e-17 0 
   17.579231 1.890745e-02 1.835500e-17 0 
   17.619753 1.886639e-02 1.823100e-17 0 
   17.660388 1.882460e-02 1.810700e-17 0 
   17.701095 1.878197e-02 1.798300e-17 0 
   17.741898 1.873855e-02 1.785900e-17 0 
   17.782794 1.869328e-02 1.773400e-17 0 
   17.823784 1.864824e-02 1.761000e-17 0 
   17.864870 1.860134e-02 1.748500e-17 0 
   17.906050 1.855253e-02 1.735900e-17 0 
   17.947344 1.850720e-02 1.723700e-17 0 
   17.988714 1.846750e-02 1.712100e-17 0 
   18.030180 1.842595e-02 1.700400e-17 0 
   18.071741 1.838363e-02 1.688700e-17 0 
   18.113397 1.834052e-02 1.677000e-17 0 
   18.155150 1.829662e-02 1.665300e-17 0 
   18.197019 1.825086e-02 1.653500e-17 0 
   18.238964 1.820426e-02 1.641700e-17 0 
   18.281006 1.815682e-02 1.629900e-17 0 
   18.323145 1.811641e-02 1.618800e-17 0 
   18.365381 1.807635e-02 1.607800e-17 0 
   18.407714 1.803553e-02 1.596800e-17 0 
   18.450145 1.799396e-02 1.585800e-17 0 
   18.492695 1.795166e-02 1.574800e-17 0 
   18.535322 1.790740e-02 1.563700e-17 0 
   18.578047 1.786234e-02 1.552600e-17 0 
   18.620870 1.781649e-02 1.541500e-17 0 
   18.663794 1.777100e-02 1.530500e-17 0 
   18.706814 1.773287e-02 1.520200e-17 0 
   18.749934 1.769402e-02 1.509900e-17 0 
   18.793175 1.765328e-02 1.499500e-17 0 
   18.836495 1.761295e-02 1.489200e-17 0 
   18.879914 1.757067e-02 1.478800e-17 0 
   18.923434 1.752643e-02 1.468300e-17 0 
   18.967053 1.748261e-02 1.457900e-17 0 
   19.010775 1.743681e-02 1.447400e-17 0 
   19.054616 1.739630e-02 1.437400e-17 0 
   19.098539 1.735865e-02 1.427700e-17 0 
   19.142563 1.731907e-02 1.417900e-17 0 
   19.186688 1.727998e-02 1.408200e-17 0 
   19.230914 1.723892e-02 1.398400e-17 0 
   19.275242 1.719712e-02 1.388600e-17 0 
   19.319673 1.715456e-02 1.378800e-17 0 
   19.364228 1.711003e-02 1.368900e-17 0 
   19.408864 1.706469e-02 1.359000e-17 0 
   19.453603 1.702866e-02 1.349900e-17 0 
   19.498444 1.699066e-02 1.340700e-17 0 
   19.543389 1.695195e-02 1.331500e-17 0 
   19.588439 1.691252e-02 1.322300e-17 0 
   19.633613 1.687240e-02 1.313100e-17 0 
   19.678870 1.683152e-02 1.303900e-17 0 
   19.724231 1.678860e-02 1.294600e-17 0 
   19.769697 1.674493e-02 1.285300e-17 0 
   19.815267 1.670442e-02 1.276300e-17 0 
   19.860942 1.666844e-02 1.267700e-17 0 
   19.906723 1.663177e-02 1.259100e-17 0 
   19.952631 1.659312e-02 1.250400e-17 0 
   19.998623 1.655372e-02 1.241700e-17 0 
   20.044722 1.651360e-02 1.233000e-17 0 
   20.090927 1.647277e-02 1.224300e-17 0 
   20.137238 1.643120e-02 1.215600e-17 0 
   20.183656 1.638890e-02 1.206900e-17 0 
   20.230203 1.635135e-02 1.198600e-17 0 
   20.276834 1.631580e-02 1.190500e-17 0 
   20.323573 1.627821e-02 1.182300e-17 0 
   20.370422 1.624130e-02 1.174200e-17 0 
   20.417377 1.620232e-02 1.166000e-17 0 
   20.464441 1.616263e-02 1.157800e-17 0 
   20.511613 1.612223e-02 1.149600e-17 0 
   20.558916 1.608115e-02 1.141400e-17 0 
   20.606305 1.604072e-02 1.133300e-17 0 
   20.653805 1.600527e-02 1.125600e-17 0 
   20.701412 1.597057e-02 1.118000e-17 0 
   20.749131 1.593378e-02 1.110300e-17 0 
   20.796959 1.589631e-02 1.102600e-17 0 
   20.844898 1.585816e-02 1.094900e-17 0 
   20.892970 1.581935e-02 1.087200e-17 0 
   20.941130 1.577980e-02 1.079500e-17 0 
   20.989400 1.573809e-02 1.071700e-17 0 
   21.037783 1.570156e-02 1.064300e-17 0 
   21.086275 1.566731e-02 1.057100e-17 0 
   21.134881 1.563242e-02 1.049900e-17 0 
   21.183622 1.559541e-02 1.042600e-17 0 
   21.232452 1.555920e-02 1.035400e-17 0 
   21.281394 1.552080e-02 1.028100e-17 0 
   21.330448 1.548324e-02 1.020900e-17 0 
   21.379617 1.544348e-02 1.013600e-17 0 
   21.428898 1.540302e-02 1.006300e-17 0 
   21.478294 1.536939e-02 9.994900e-18 0 
   21.527827 1.533547e-02 9.927000e-18 0 
   21.577450 1.530088e-02 9.859100e-18 0 
   21.627188 1.526532e-02 9.791000e-18 0 
   21.677039 1.522895e-02 9.722800e-18 0 
   21.727006 1.519145e-02 9.654300e-18 0 
   21.777089 1.515328e-02 9.585800e-18 0 
   21.827311 1.511400e-02 9.517000e-18 0 
   21.877623 1.507686e-02 9.450000e-18 0 
   21.928053 1.504435e-02 9.386300e-18 0 
   21.978598 1.501089e-02 9.322400e-18 0 
   22.029261 1.497665e-02 9.258400e-18 0 
   22.080041 1.494144e-02 9.194200e-18 0 
   22.130936 1.490526e-02 9.129800e-18 0 
   22.181973 1.486830e-02 9.065300e-18 0 
   22.233105 1.483048e-02 9.000700e-18 0 
   22.284355 1.479167e-02 8.935900e-18 0 
   22.335720 1.475833e-02 8.874800e-18 0 
   22.387206 1.472604e-02 8.814700e-18 0 
   22.438811 1.469298e-02 8.754500e-18 0 
   22.490558 1.465898e-02 8.694100e-18 0 
   22.542400 1.462416e-02 8.633600e-18 0 
   22.594363 1.458854e-02 8.573000e-18 0 
   22.646444 1.455193e-02 8.512200e-18 0 
   22.698645 1.451450e-02 8.451300e-18 0 
   22.750967 1.447746e-02 8.391000e-18 0 
   22.803411 1.444634e-02 8.334500e-18 0 
   22.855998 1.441432e-02 8.277800e-18 0 
   22.908683 1.438166e-02 8.221100e-18 0 
   22.961489 1.434804e-02 8.164200e-18 0 
   23.014417 1.431362e-02 8.107200e-18 0 
   23.067467 1.427823e-02 8.050000e-18 0 
   23.120639 1.424203e-02 7.992700e-18 0 
   23.173934 1.420501e-02 7.935300e-18 0 
   23.227378 1.417152e-02 7.880200e-18 0 
   23.280919 1.414081e-02 7.827000e-18 0 
   23.334583 1.410916e-02 7.773600e-18 0 
   23.388370 1.407672e-02 7.720100e-18 0 
   23.442281 1.404351e-02 7.666500e-18 0 
   23.496319 1.400932e-02 7.612700e-18 0 
   23.550505 1.397455e-02 7.558900e-18 0 
   23.604791 1.393875e-02 7.504900e-18 0 
   23.659202 1.390196e-02 7.450700e-18 0 
   23.713738 1.387202e-02 7.400500e-18 0 
   23.768398 1.384152e-02 7.350300e-18 0 
   23.823187 1.381024e-02 7.300000e-18 0 
   23.878102 1.377820e-02 7.249600e-18 0 
   23.933167 1.374521e-02 7.199000e-18 0 
   23.988336 1.371159e-02 7.148400e-18 0 
   24.043630 1.367698e-02 7.097600e-18 0 
   24.099053 1.364157e-02 7.046700e-18 0 
   24.154603 1.360807e-02 6.997100e-18 0 
   24.210281 1.357866e-02 6.949900e-18 0 
   24.266114 1.354852e-02 6.902600e-18 0 
   24.322048 1.351759e-02 6.855200e-18 0 
   24.378113 1.348588e-02 6.807700e-18 0 
   24.434306 1.345320e-02 6.760000e-18 0 
   24.490630 1.341992e-02 6.712300e-18 0 
   24.547081 1.338565e-02 6.664400e-18 0 
   24.603664 1.335078e-02 6.616500e-18 0 
   24.660405 1.332060e-02 6.571200e-18 0 
   24.717248 1.329146e-02 6.526700e-18 0 
   24.774223 1.326156e-02 6.482100e-18 0 
   24.831330 1.323089e-02 6.437400e-18 0 
   24.888567 1.319946e-02 6.392600e-18 0 
   24.945937 1.316724e-02 6.347700e-18 0 
   25.003441 1.313424e-02 6.302700e-18 0 
   25.061102 1.310047e-02 6.257600e-18 0 
   25.118870 1.306692e-02 6.212900e-18 0 
   25.176770 1.303891e-02 6.171100e-18 0 
   25.234805 1.301015e-02 6.129200e-18 0 
   25.292973 1.298064e-02 6.087200e-18 0 
   25.882136 1.267534e-02 5.676500e-18 0 
   26.484994 1.237577e-02 5.292900e-18 0 
   27.101922 1.208153e-02 4.934500e-18 0 
   27.733191 1.179409e-02 4.600300e-18 0 
   28.379194 1.151987e-02 4.291100e-18 0 
   29.040216 1.125064e-02 4.002200e-18 0 
   29.716663 1.098610e-02 3.732200e-18 0 
   30.408838 1.072680e-02 3.480100e-18 0 
   31.117166 1.047193e-02 3.244500e-18 0 
   31.841959 1.022191e-02 3.024500e-18 0 
   32.583672 9.984186e-03 2.821200e-18 0 
   33.342622 9.750987e-03 2.631300e-18 0 
   34.119291 9.522162e-03 2.453900e-18 0 
   34.914050 3.213666e-02 7.909000e-18 0 
