# NGC 4458
# 
# An Atlas of Galaxy Spectral Energy Distributions from the Ultraviolet to the Mid-Infrared
# Brown et al. (2014)
# http://dx.doi.org/10.5072/03/529D3551F0117
# http://dx.doi.org/10.17909/t9-5bxk-dh29
# 
# The Spectral Energy Distributions of Active Galactic Nuclei
# Brown et al. (2019)
# http://dx.doi.org/10.17909/t9-3dbt-8734
# 
# Column 1: Observed wavelength (um)
# Column 2: f_nu (Jy)
# Column 3: f_lam (erg/s/cm2/A)
# Column 4: Source (0 = model, 1 = Optical Spectrun, 2 = Akari, 3 = Spitzer IRS)
# 
    0.010046 1.057798e-09 3.144400e-18 0 
    0.010233 1.325648e-09 3.797900e-18 0 
    0.010447 1.528976e-09 4.202800e-18 0 
    0.010641 1.812940e-09 4.803300e-18 0 
    0.010839 2.184731e-09 5.578800e-18 0 
    0.011041 3.150926e-09 7.754300e-18 0 
    0.011455 4.201569e-09 9.606000e-18 0 
    0.011858 5.302016e-09 1.131200e-17 0 
    0.012162 1.688244e-08 3.424100e-17 0 
    0.012560 2.067308e-08 3.931400e-17 0 
    0.012764 2.251116e-08 4.145200e-17 0 
    0.012853 2.368246e-08 4.300700e-17 0 
    0.013152 2.638793e-08 4.576600e-17 0 
    0.013243 3.036653e-08 5.194500e-17 0 
    0.013459 3.254204e-08 5.389400e-17 0 
    0.013772 4.031014e-08 6.375900e-17 0 
    0.014060 4.450320e-08 6.753700e-17 0 
    0.014355 9.737307e-08 1.417600e-16 0 
    0.014757 1.988014e-07 2.738700e-16 0 
    0.015171 2.205233e-07 2.874400e-16 0 
    0.015560 2.457211e-07 3.044700e-16 0 
    0.015959 2.737999e-07 3.225100e-16 0 
    0.016255 2.960730e-07 3.361600e-16 0 
    0.016672 3.314343e-07 3.577200e-16 0 
    0.017061 3.634396e-07 3.745800e-16 0 
    0.017378 3.921202e-07 3.895300e-16 0 
    0.017783 4.289729e-07 4.069500e-16 0 
    0.018072 4.575409e-07 4.202800e-16 0 
    0.018281 4.790907e-07 4.300700e-16 0 
    0.018664 5.205085e-07 4.482700e-16 0 
    0.019187 5.773432e-07 4.704800e-16 0 
    0.019498 6.171712e-07 4.870200e-16 0 
    0.019907 6.674690e-07 5.052900e-16 0 
    0.020277 7.185101e-07 5.242600e-16 0 
    0.020606 7.627928e-07 5.389400e-16 0 
    0.021086 8.005965e-07 5.401900e-16 0 
    0.021677 9.213493e-07 5.882300e-16 0 
    0.022080 9.895161e-07 6.089000e-16 0 
    0.022387 1.029002e-06 6.159500e-16 0 
    0.022803 1.107655e-06 6.390600e-16 0 
    0.023121 1.696046e-06 9.518000e-16 0 
    0.023496 2.933658e-06 1.594200e-15 0 
    0.024099 3.736041e-06 1.929900e-15 0 
    0.024717 3.693276e-06 1.813600e-15 0 
    0.025293 4.003254e-06 1.877300e-15 0 
    0.025823 3.454832e-06 1.554300e-15 0 
    0.026122 4.059125e-06 1.784600e-15 0 
    0.026485 4.319328e-06 1.847300e-15 0 
    0.027040 4.430352e-06 1.817800e-15 0 
    0.027542 4.522798e-06 1.788700e-15 0 
    0.027990 4.585997e-06 1.756100e-15 0 
    0.028510 4.692682e-06 1.732000e-15 0 
    0.029107 4.596437e-06 1.627600e-15 0 
    0.029717 4.791113e-06 1.627600e-15 0 
    0.030200 4.769057e-06 1.568700e-15 0 
    0.030903 4.959291e-06 1.557900e-15 0 
    0.031915 5.228984e-06 1.540100e-15 0 
    0.032961 5.400268e-06 1.491200e-15 0 
    0.033963 5.513660e-06 1.434000e-15 0 
    0.034914 5.590277e-06 1.375800e-15 0 
    0.035892 5.720196e-06 1.332100e-15 0 
    0.036728 5.840036e-06 1.298800e-15 0 
    0.037670 5.921135e-06 1.251800e-15 0 
    0.038637 5.813530e-06 1.168300e-15 0 
    0.039628 6.073176e-06 1.160200e-15 0 
    0.040644 6.200261e-06 1.126000e-15 0 
    0.041591 6.257881e-06 1.085300e-15 0 
    0.042364 6.243193e-06 1.043600e-15 0 
    0.043152 6.257881e-06 1.008200e-15 0 
    0.044259 6.359567e-06 9.739700e-16 0 
    0.045290 6.374191e-06 9.322700e-16 0 
    0.046238 6.388844e-06 8.964900e-16 0 
    0.047206 6.403474e-06 8.620700e-16 0 
    0.048195 6.462920e-06 8.347300e-16 0 
    0.049204 6.403553e-06 7.934900e-16 0 
    0.050234 6.507569e-06 7.736500e-16 0 
    0.050816 6.462809e-06 7.508300e-16 0 
    0.051404 6.705281e-06 7.612800e-16 0 
    0.052240 6.720934e-06 7.388300e-16 0 
    0.053211 6.659288e-06 7.055800e-16 0 
    0.054200 6.537620e-06 6.676400e-16 0 
    0.055208 6.507723e-06 6.405400e-16 0 
    0.056234 6.674483e-06 6.332000e-16 0 
    0.057280 6.783136e-06 6.202200e-16 0 
    0.058210 6.689839e-06 5.923000e-16 0 
    0.059293 6.751942e-06 5.761600e-16 0 
    0.060256 6.613355e-06 5.464400e-16 0 
    0.061235 6.031433e-06 4.825500e-16 0 
    0.062230 6.736340e-06 5.218500e-16 0 
    0.063241 6.674505e-06 5.006600e-16 0 
    0.064269 6.751860e-06 4.903900e-16 0 
    0.065313 6.720749e-06 4.726500e-16 0 
    0.066069 6.613291e-06 4.545100e-16 0 
    0.066834 6.736208e-06 4.524200e-16 0 
    0.067764 6.751865e-06 4.411100e-16 0 
    0.068865 6.582910e-06 4.164300e-16 0 
    0.069823 6.720696e-06 4.135600e-16 0 
    0.070795 6.507660e-06 3.895300e-16 0 
    0.071945 6.720799e-06 3.895300e-16 0 
    0.072946 6.720928e-06 3.789200e-16 0 
    0.073790 6.705292e-06 3.694400e-16 0 
    0.074817 6.659258e-06 3.569000e-16 0 
    0.075858 6.643881e-06 3.463700e-16 0 
    0.076913 6.200347e-06 3.144400e-16 0 
    0.077804 6.598274e-06 3.270000e-16 0 
    0.078886 6.492664e-06 3.130000e-16 0 
    0.079799 6.552549e-06 3.087000e-16 0 
    0.080910 6.598145e-06 3.023700e-16 0 
    0.081846 6.582879e-06 2.948100e-16 0 
    0.082794 6.582937e-06 2.881000e-16 0 
    0.083946 6.229017e-06 2.651800e-16 0 
    0.084918 6.537553e-06 2.719800e-16 0 
    0.085901 6.507524e-06 2.645700e-16 0 
    0.086896 6.522732e-06 2.591500e-16 0 
    0.087902 6.537613e-06 2.538300e-16 0 
    0.088920 6.537578e-06 2.480500e-16 0 
    0.089950 6.537800e-06 2.424100e-16 0 
    0.090991 6.492676e-06 2.352600e-16 0 
    0.091833 7.403313e-06 2.633600e-16 0 
    0.092897 1.322582e-05 4.597700e-16 0 
    0.093972 2.029627e-05 6.895100e-16 0 
    0.094842 2.940527e-05 9.807201e-16 0 
    0.095940 3.667987e-05 1.195500e-15 0 
    0.096828 4.124979e-05 1.319900e-15 0 
    0.097949 1.699898e-05 5.315500e-16 0 
    0.098855 3.858434e-05 1.184500e-15 0 
    0.100000 3.903333e-05 1.171000e-15 0 
    0.100925 4.959154e-05 1.460600e-15 0 
    0.101859 4.824148e-05 1.394900e-15 0 
    0.103039 2.572932e-05 7.270200e-16 0 
    0.103992 4.012479e-05 1.113100e-15 0 
    0.104954 6.229177e-05 1.696500e-15 0 
    0.105925 6.186018e-05 1.654000e-15 0 
    0.106905 5.301765e-05 1.391700e-15 0 
    0.107895 6.045343e-05 1.557900e-15 0 
    0.108893 5.028450e-05 1.272200e-15 0 
    0.109901 6.345097e-05 1.576000e-15 0 
    0.110918 6.186260e-05 1.508500e-15 0 
    0.111944 6.101149e-05 1.460600e-15 0 
    0.112980 5.628711e-05 1.322900e-15 0 
    0.114025 6.736181e-05 1.554300e-15 0 
    0.115080 6.344917e-05 1.437300e-15 0 
    0.115878 6.613595e-05 1.477600e-15 0 
    0.116950 6.814488e-05 1.494700e-15 0 
    0.118032 5.145386e-05 1.108000e-15 0 
    0.119124 6.705497e-05 1.417600e-15 0 
    0.119950 5.241069e-05 1.092800e-15 0 
    0.121060 4.250346e-05 8.700500e-16 0 
    0.121899 2.827638e-05 5.708800e-16 0 
    0.123027 5.157218e-05 1.022200e-15 0 
    0.124165 7.004947e-05 1.363100e-15 0 
    0.125026 7.575546e-05 1.453900e-15 0 
    0.126183 7.437235e-05 1.401300e-15 0 
    0.127057 6.751741e-05 1.254700e-15 0 
    0.127938 8.155149e-05 1.494700e-15 0 
    0.129122 8.519643e-05 1.533000e-15 0 
    0.130017 7.218188e-05 1.281000e-15 0 
    0.130918 7.201457e-05 1.260500e-15 0 
    0.132130 8.579027e-05 1.474200e-15 0 
    0.133045 8.325947e-05 1.411100e-15 0 
    0.133968 7.663551e-05 1.281000e-15 0 
    0.135207 8.778503e-05 1.440600e-15 0 
    0.136144 8.618244e-05 1.394900e-15 0 
    0.137088 7.969535e-05 1.272200e-15 0 
    0.138038 8.287433e-05 1.304800e-15 0 
    0.138995 8.402742e-05 1.304800e-15 0 
    0.139959 7.369202e-05 1.128600e-15 0 
    0.141254 7.610623e-05 1.144300e-15 0 
    0.142233 8.117715e-05 1.203800e-15 0 
    0.143219 8.249114e-05 1.206500e-15 0 
    0.144212 8.325773e-05 1.201000e-15 0 
    0.144877 8.677695e-05 1.240300e-15 0 
    0.145211 8.778199e-05 1.248900e-15 0 
    0.146218 8.638114e-05 1.212100e-15 0 
    0.147231 8.192449e-05 1.133800e-15 0 
    0.148252 8.230274e-05 1.123400e-15 0 
    0.149279 8.383324e-05 1.128600e-15 0 
    0.150314 8.519557e-05 1.131200e-15 0 
    0.151008 8.173504e-05 1.075300e-15 0 
    0.151705 7.506226e-05 9.784600e-16 0 
    0.152405 7.950699e-05 1.026900e-15 0 
    0.153109 7.805917e-05 9.989500e-16 0 
    0.154170 7.005257e-05 8.841900e-16 0 
    0.155239 7.403258e-05 9.216000e-16 0 
    0.156315 7.151943e-05 8.781000e-16 0 
    0.157036 7.386172e-05 8.985500e-16 0 
    0.158125 7.860021e-05 9.430700e-16 0 
    0.159221 8.192618e-05 9.694900e-16 0 
    0.160325 8.422208e-05 9.829800e-16 0 
    0.161065 8.249449e-05 9.539900e-16 0 
    0.162181 8.306561e-05 9.474200e-16 0 
    0.163305 8.043049e-05 9.047799e-16 0 
    0.164059 8.480489e-05 9.452400e-16 0 
    0.165196 8.638196e-05 9.496100e-16 0 
    0.166341 8.192612e-05 8.882700e-16 0 
    0.167109 8.839418e-05 9.496100e-16 0 
    0.167880 8.080172e-05 8.600900e-16 0 
    0.168267 9.192259e-05 9.739700e-16 0 
    0.169044 9.493381e-05 9.966500e-16 0 
    0.170216 9.066191e-05 9.387400e-16 0 
    0.171396 8.941744e-05 9.131500e-16 0 
    0.172187 8.798744e-05 8.903100e-16 0 
    0.173380 8.921092e-05 8.903100e-16 0 
    0.174181 9.603413e-05 9.496100e-16 0 
    0.175388 9.515285e-05 9.279900e-16 0 
    0.176198 1.031391e-04 9.966500e-16 0 
    0.177419 9.471579e-05 9.027000e-16 0 
    0.178238 9.918003e-05 9.365800e-16 0 
    0.179473 1.033766e-04 9.628200e-16 0 
    0.180302 1.138784e-04 1.050900e-15 0 
    0.181134 1.125695e-04 1.029300e-15 0 
    0.182390 1.072566e-04 9.672600e-16 0 
    0.183231 1.100073e-04 9.829800e-16 0 
    0.184502 1.082492e-04 9.539900e-16 0 
    0.185353 9.625447e-05 8.405100e-16 0 
    0.186209 1.043334e-04 9.027000e-16 0 
    0.187499 1.141359e-04 9.739700e-16 0 
    0.188365 1.192411e-04 1.008200e-15 0 
    0.189234 1.146620e-04 9.605999e-16 0 
    0.190108 1.184198e-04 9.829800e-16 0 
    0.191426 1.220181e-04 9.989500e-16 0 
    0.192309 1.228629e-04 9.966500e-16 0 
    0.193197 1.159902e-04 9.322700e-16 0 
    0.194536 1.043328e-04 8.270700e-16 0 
    0.195434 1.347118e-04 1.058100e-15 0 
    0.196336 1.319492e-04 1.026900e-15 0 
    0.197697 1.511513e-04 1.160200e-15 0 
    0.198610 1.473700e-04 1.120800e-15 0 
    0.199067 1.529100e-04 1.157600e-15 0 
    0.200447 1.546758e-04 1.154900e-15 0 
    0.201372 1.525517e-04 1.128600e-15 0 
    0.202302 1.550281e-04 1.136400e-15 0 
    0.203236 1.456823e-04 1.058100e-15 0 
    0.204174 1.645943e-04 1.184500e-15 0 
    0.205589 1.796481e-04 1.275100e-15 0 
    0.206538 1.719542e-04 1.209300e-15 0 
    0.207491 1.699857e-04 1.184500e-15 0 
    0.208449 1.916044e-04 1.322900e-15 0 
    0.208930 2.782362e-04 1.912200e-15 0 
    0.209411 3.246582e-04 2.221000e-15 0 
    0.210378 3.029817e-04 2.053700e-15 0 
    0.211349 2.926971e-04 1.965800e-15 0 
    0.212324 3.246468e-04 2.160400e-15 0 
    0.213304 2.967722e-04 1.956800e-15 0 
    0.214289 2.795290e-04 1.826200e-15 0 
    0.215278 3.462715e-04 2.241500e-15 0 
    0.216272 3.510980e-04 2.251900e-15 0 
    0.217270 3.121907e-04 1.984000e-15 0 
    0.218273 3.201934e-04 2.016200e-15 0 
    0.219281 3.867409e-04 2.412900e-15 0 
    0.220293 3.948481e-04 2.440900e-15 0 
    0.221309 3.832014e-04 2.347200e-15 0 
    0.222331 3.093232e-04 1.877300e-15 0 
    0.223357 3.494845e-04 2.101600e-15 0 
    0.224388 4.543749e-04 2.707300e-15 0 
    0.225424 4.339346e-04 2.561800e-15 0 
    0.226464 3.438893e-04 2.011600e-15 0 
    0.227510 3.299234e-04 1.912200e-15 0 
    0.228560 3.651031e-04 2.096700e-15 0 
    0.229615 4.736111e-04 2.694900e-15 0 
    0.230675 4.021507e-04 2.267300e-15 0 
    0.231739 4.834161e-04 2.700500e-15 0 
    0.232274 4.181219e-04 2.325000e-15 0 
    0.233346 3.343796e-04 1.842300e-15 0 
    0.234423 3.063144e-04 1.672200e-15 0 
    0.235505 2.208521e-04 1.194600e-15 0 
    0.236592 3.981557e-04 2.133900e-15 0 
    0.237684 2.449001e-04 1.300500e-15 0 
    0.238781 3.169160e-04 1.667500e-15 0 
    0.239332 1.985700e-04 1.040000e-15 0 
    0.240436 2.470777e-04 1.282200e-15 0 
    0.241546 2.476139e-04 1.273200e-15 0 
    0.242661 2.928909e-04 1.492200e-15 0 
    0.243781 4.871410e-04 2.459100e-15 0 
    0.244343 4.904841e-04 2.464600e-15 0 
    0.245471 5.855478e-04 2.915300e-15 0 
    0.246604 6.215751e-04 3.066300e-15 0 
    0.247742 5.513619e-04 2.695000e-15 0 
    0.248313 4.891024e-04 2.379700e-15 0 
    0.249460 3.283478e-04 1.582900e-15 0 
    0.250611 3.883915e-04 1.855200e-15 0 
    0.251768 6.000648e-04 2.840000e-15 0 
    0.252348 2.774516e-04 1.307100e-15 0 
    0.252930 2.213913e-04 1.038200e-15 0 
    0.253513 2.466638e-04 1.151400e-15 0 
    0.254683 3.890725e-04 1.799500e-15 0 
    0.255859 4.207143e-04 1.928000e-15 0 
    0.256448 7.243420e-04 3.304200e-15 0 
    0.257632 5.506408e-04 2.488800e-15 0 
    0.258821 7.027520e-04 3.147200e-15 0 
    0.259418 6.277304e-04 2.798300e-15 0 
    0.260615 5.684692e-04 2.510900e-15 0 
    0.261818 4.938931e-04 2.161500e-15 0 
    0.262422 4.452601e-04 1.939700e-15 0 
    0.263633 6.202159e-04 2.677100e-15 0 
    0.264850 1.048255e-03 4.483200e-15 0 
    0.265461 1.430344e-03 6.089200e-15 0 
    0.266686 1.938059e-03 8.175000e-15 0 
    0.267917 1.271455e-03 5.314000e-15 0 
    0.268534 1.459709e-03 6.072800e-15 0 
    0.269774 1.679547e-03 6.923300e-15 0 
    0.270396 1.250712e-03 5.131900e-15 0 
    0.271644 1.545566e-03 6.283600e-15 0 
    0.272898 1.140311e-03 4.593500e-15 0 
    0.273527 9.549645e-04 3.829200e-15 0 
    0.274789 1.199259e-03 4.764700e-15 0 
    0.275423 6.635537e-04 2.624200e-15 0 
    0.276694 9.095022e-04 3.563900e-15 0 
    0.277971 1.201515e-03 4.665000e-15 0 
    0.278612 1.302257e-03 5.032900e-15 0 
    0.279898 7.845518e-04 3.004300e-15 0 
    0.280543 3.392946e-04 1.293300e-15 0 
    0.281838 4.183188e-04 1.579900e-15 0 
    0.282488 1.187070e-03 4.462700e-15 0 
    0.283792 1.759565e-03 6.554300e-15 0 
    0.284446 1.687989e-03 6.258800e-15 0 
    0.285759 1.292105e-03 4.747000e-15 0 
    0.286418 7.572949e-04 2.769400e-15 0 
    0.287740 1.774944e-03 6.431400e-15 0 
    0.289068 2.302031e-03 8.264800e-15 0 
    0.289734 2.084822e-03 7.450600e-15 0 
    0.291072 2.488848e-03 8.812900e-15 0 
    0.292415 3.349006e-03 1.175000e-14 0 
    0.294442 2.977144e-03 1.030200e-14 0 
    0.296483 2.822890e-03 9.634200e-15 0 
    0.298538 3.024009e-03 1.017900e-14 0 
    0.300608 3.107959e-03 1.031800e-14 0 
    0.301995 3.194466e-03 1.050800e-14 0 
    0.304089 3.398277e-03 1.102500e-14 0 
    0.306196 3.607105e-03 1.154200e-14 0 
    0.308319 3.908575e-03 1.233500e-14 0 
    0.310456 3.907685e-03 1.216300e-14 0 
    0.312608 4.454250e-03 1.367400e-14 0 
    0.314051 4.204513e-03 1.278900e-14 0 
    0.316228 4.232340e-03 1.269700e-14 0 
    0.318420 4.693065e-03 1.388600e-14 0 
    0.320627 4.152845e-03 1.211900e-14 0 
    0.322107 4.658506e-03 1.347000e-14 0 
    0.324340 4.000620e-03 1.140900e-14 0 
    0.326588 5.533506e-03 1.556400e-14 0 
    0.328095 6.455191e-03 1.799000e-14 0 
    0.330370 6.408955e-03 1.761600e-14 0 
    0.332660 6.175346e-03 1.674100e-14 0 
    0.333426 5.856218e-03 1.580300e-14 0 
    0.334195 5.936871e-03 1.594700e-14 0 
    0.334966 6.800202e-03 1.818200e-14 0 
    0.335738 6.144367e-03 1.635300e-14 0 
    0.336512 6.644188e-03 1.760200e-14 0 
    0.337287 6.876945e-03 1.813500e-14 0 
    0.338065 5.812304e-03 1.525700e-14 0 
    0.338844 4.867401e-03 1.271800e-14 0 
    0.339625 6.255552e-03 1.627000e-14 0 
    0.340408 6.826736e-03 1.767400e-14 0 
    0.341193 6.000296e-03 1.546300e-14 0 
    0.341979 7.163555e-03 1.837600e-14 0 
    0.342768 6.413382e-03 1.637600e-14 0 
    0.343558 6.745928e-03 1.714600e-14 0 
    0.344350 6.854536e-03 1.734200e-14 0 
    0.345144 6.854020e-03 1.726100e-14 0 
    0.345939 4.818466e-03 1.207900e-14 0 
    0.346737 7.359468e-03 1.836400e-14 0 
    0.347536 6.757712e-03 1.678500e-14 0 
    0.348337 6.866960e-03 1.697800e-14 0 
    0.349140 6.541899e-03 1.610000e-14 0 
    0.349945 7.041536e-03 1.725000e-14 0 
    0.350752 6.662320e-03 1.624600e-14 0 
    0.351560 6.260058e-03 1.519500e-14 0 
    0.352371 7.754124e-03 1.873500e-14 0 
    0.353183 6.478488e-03 1.558100e-14 0 
    0.353997 6.989590e-03 1.673300e-14 0 
    0.354813 7.823365e-03 1.864300e-14 0 
    0.355631 8.305087e-03 1.970000e-14 0 
    0.356451 8.776273e-03 2.072200e-14 0 
    0.357273 7.713527e-03 1.812900e-14 0 
    0.358096 8.535172e-03 1.996800e-14 0 
    0.358922 6.027722e-03 1.403700e-14 0 
    0.359749 6.841106e-03 1.585800e-14 0 
    0.360579 5.224959e-03 1.205600e-14 0 
    0.361410 8.222788e-03 1.888600e-14 0 
    0.362243 7.567894e-03 1.730200e-14 0 
    0.363078 7.326869e-03 1.667400e-14 0 
    0.363915 6.805790e-03 1.541700e-14 0 
    0.364754 1.049108e-02 2.365600e-14 0 
    0.365595 8.605457e-03 1.931500e-14 0 
    0.366437 8.198449e-03 1.831700e-14 0 
    0.367282 1.017836e-02 2.263600e-14 0 
    0.368129 1.063237e-02 2.353700e-14 0 
    0.368978 9.762942e-03 2.151300e-14 0 
    0.369828 9.173804e-03 2.012200e-14 0 
    0.370681 8.307929e-03 1.813900e-14 0 
    0.371535 1.005655e-02 2.185600e-14 0 
    0.372392 8.480025e-03 1.834500e-14 0 
    0.373250 1.112621e-02 2.395900e-14 0 
    0.374111 6.357873e-03 1.362800e-14 0 
    0.374973 9.489414e-03 2.024700e-14 0 
    0.375837 7.819791e-03 1.660800e-14 0 
    0.376704 6.593894e-03 1.394000e-14 0 
    0.377572 1.061934e-02 2.234700e-14 0 
    0.378443 9.142153e-03 1.915000e-14 0 
    0.379315 1.049556e-02 2.188400e-14 0 
    0.380189 1.235800e-02 2.564900e-14 0 
    0.381066 9.504079e-03 1.963500e-14 0 
    0.381944 7.635909e-03 1.570300e-14 0 
    0.382825 1.073515e-02 2.197500e-14 0 
    0.383707 9.156791e-03 1.865800e-14 0 
    0.384592 7.173191e-03 1.454900e-14 0 
    0.385478 5.883799e-03 1.187900e-14 0 
    0.386367 9.607128e-03 1.930700e-14 0 
    0.387258 1.055730e-02 2.111900e-14 0 
    0.388150 9.451430e-03 1.882000e-14 0 
    0.389045 9.385082e-03 1.860200e-14 0 
    0.389942 9.341231e-03 1.843000e-14 0 
    0.390109 8.933262e-03 1.761000e-14 1 
    0.390288 1.340711e-02 2.640500e-14 1 
    0.390466 9.164084e-03 1.803200e-14 1 
    0.390644 8.982196e-03 1.765800e-14 1 
    0.390823 1.001635e-02 1.967300e-14 1 
    0.391001 1.122203e-02 2.202100e-14 1 
    0.391179 1.134141e-02 2.223500e-14 1 
    0.391358 1.023065e-02 2.003900e-14 1 
    0.391536 1.022412e-02 2.000800e-14 1 
    0.391715 8.829486e-03 1.726300e-14 1 
    0.391893 9.288525e-03 1.814400e-14 1 
    0.392071 1.064355e-02 2.077200e-14 1 
    0.392250 1.388228e-02 2.706800e-14 1 
    0.392428 1.208282e-02 2.353800e-14 1 
    0.392606 1.270315e-02 2.472400e-14 1 
    0.392785 1.166460e-02 2.268200e-14 1 
    0.392963 1.424369e-02 2.767200e-14 1 
    0.393142 1.283574e-02 2.491400e-14 1 
    0.393320 1.238843e-02 2.402400e-14 1 
    0.393498 1.296378e-02 2.511700e-14 1 
    0.393677 9.465242e-03 1.832200e-14 1 
    0.393855 1.028457e-02 1.989000e-14 1 
    0.394033 1.003976e-02 1.939900e-14 1 
    0.394212 8.056097e-03 1.555200e-14 1 
    0.394390 7.951900e-03 1.533700e-14 1 
    0.394568 7.166130e-03 1.380900e-14 1 
    0.394747 5.782673e-03 1.113300e-14 1 
    0.394925 6.010401e-03 1.156100e-14 1 
    0.395104 6.360326e-03 1.222300e-14 1 
    0.395282 4.757487e-03 9.134500e-15 1 
    0.395460 8.612842e-03 1.652200e-14 1 
    0.395639 7.504058e-03 1.438200e-14 1 
    0.395817 8.400181e-03 1.608500e-14 1 
    0.395995 1.002865e-02 1.918600e-14 1 
    0.396174 1.187617e-02 2.270000e-14 1 
    0.396352 1.213139e-02 2.316700e-14 1 
    0.396531 1.206950e-02 2.302800e-14 1 
    0.396709 1.099023e-02 2.095000e-14 1 
    0.396887 1.087408e-02 2.071000e-14 1 
    0.397066 1.236013e-02 2.351900e-14 1 
    0.397244 1.274731e-02 2.423400e-14 1 
    0.397422 1.107610e-02 2.103800e-14 1 
    0.397601 9.328688e-03 1.770300e-14 1 
    0.397779 8.077019e-03 1.531400e-14 1 
    0.397958 8.274335e-03 1.567400e-14 1 
    0.398136 8.433910e-03 1.596200e-14 1 
    0.398314 4.942285e-03 9.345400e-15 1 
    0.398493 4.807304e-03 9.082000e-15 1 
    0.398671 5.340865e-03 1.008100e-14 1 
    0.398849 7.456104e-03 1.406100e-14 1 
    0.399028 8.551885e-03 1.611300e-14 1 
    0.399206 1.170008e-02 2.202500e-14 1 
    0.399385 1.271494e-02 2.391400e-14 1 
    0.399563 1.333136e-02 2.505100e-14 1 
    0.399741 1.522187e-02 2.857800e-14 1 
    0.399920 1.331307e-02 2.497200e-14 1 
    0.400098 1.418668e-02 2.658700e-14 1 
    0.400276 1.671104e-02 3.129000e-14 1 
    0.400455 1.700128e-02 3.180500e-14 1 
    0.400633 1.708702e-02 3.193700e-14 1 
    0.400812 1.529069e-02 2.855400e-14 1 
    0.400990 1.672622e-02 3.120700e-14 1 
    0.401168 1.645836e-02 3.068000e-14 1 
    0.401347 1.742235e-02 3.244800e-14 1 
    0.401525 1.724273e-02 3.208500e-14 1 
    0.401703 1.643774e-02 3.056000e-14 1 
    0.401882 1.823330e-02 3.386800e-14 1 
    0.402060 1.941551e-02 3.603200e-14 1 
    0.402239 1.813897e-02 3.363300e-14 1 
    0.402417 1.800119e-02 3.334800e-14 1 
    0.402595 1.944182e-02 3.598500e-14 1 
    0.402774 1.924119e-02 3.558200e-14 1 
    0.402952 1.801120e-02 3.327800e-14 1 
    0.403130 1.926926e-02 3.557100e-14 1 
    0.403309 1.969953e-02 3.633300e-14 1 
    0.403487 1.995624e-02 3.677400e-14 1 
    0.403666 2.234536e-02 4.114000e-14 1 
    0.403844 2.086138e-02 3.837400e-14 1 
    0.404022 2.061915e-02 3.789500e-14 1 
    0.404201 2.103824e-02 3.863100e-14 1 
    0.404379 1.940847e-02 3.560700e-14 1 
    0.404557 1.796566e-02 3.293100e-14 1 
    0.404736 1.829171e-02 3.349900e-14 1 
    0.404914 1.605833e-02 2.938300e-14 1 
    0.405093 1.746137e-02 3.192200e-14 1 
    0.405271 2.017745e-02 3.685500e-14 1 
    0.405449 1.945433e-02 3.550300e-14 1 
    0.405628 1.958504e-02 3.571000e-14 1 
    0.405806 2.096632e-02 3.819500e-14 1 
    0.405984 2.006665e-02 3.652400e-14 1 
    0.406163 1.722380e-02 3.132200e-14 1 
    0.406341 1.824994e-02 3.315900e-14 1 
    0.406519 1.821966e-02 3.307500e-14 1 
    0.406698 1.967858e-02 3.569200e-14 1 
    0.406876 1.951094e-02 3.535700e-14 1 
    0.407055 1.992081e-02 3.606800e-14 1 
    0.407233 1.921408e-02 3.475800e-14 1 
    0.407411 1.779567e-02 3.216400e-14 1 
    0.407590 1.833296e-02 3.310600e-14 1 
    0.407768 1.878073e-02 3.388500e-14 1 
    0.407946 1.901847e-02 3.428400e-14 1 
    0.408125 1.944825e-02 3.502800e-14 1 
    0.408303 1.827379e-02 3.288400e-14 1 
    0.408482 1.955904e-02 3.516600e-14 1 
    0.408660 2.045620e-02 3.674700e-14 1 
    0.408838 1.977701e-02 3.549600e-14 1 
    0.409017 1.832771e-02 3.286600e-14 1 
    0.409195 1.859874e-02 3.332300e-14 1 
    0.409373 1.956234e-02 3.501900e-14 1 
    0.409552 2.053665e-02 3.673100e-14 1 
    0.409730 1.910907e-02 3.414800e-14 1 
    0.409909 1.994573e-02 3.561200e-14 1 
    0.410087 2.045861e-02 3.649600e-14 1 
    0.410265 2.180832e-02 3.887000e-14 1 
    0.410444 2.136352e-02 3.804400e-14 1 
    0.410622 2.125110e-02 3.781100e-14 1 
    0.410800 2.202105e-02 3.914700e-14 1 
    0.410979 2.038725e-02 3.621100e-14 1 
    0.411157 2.021839e-02 3.588000e-14 1 
    0.411336 2.088233e-02 3.702600e-14 1 
    0.411514 1.749039e-02 3.098500e-14 1 
    0.411692 1.793716e-02 3.174900e-14 1 
    0.411871 1.585604e-02 2.804100e-14 1 
    0.412049 1.712106e-02 3.025200e-14 1 
    0.412227 1.974486e-02 3.485800e-14 1 
    0.412406 2.040888e-02 3.599900e-14 1 
    0.412584 2.037940e-02 3.591600e-14 1 
    0.412763 1.972639e-02 3.473500e-14 1 
    0.412941 2.133493e-02 3.753500e-14 1 
    0.413119 2.220382e-02 3.903000e-14 1 
    0.413298 1.895366e-02 3.328800e-14 1 
    0.413476 2.056677e-02 3.609000e-14 1 
    0.413654 2.041623e-02 3.579500e-14 1 
    0.413833 2.102246e-02 3.682600e-14 1 
    0.414011 2.060861e-02 3.607000e-14 1 
    0.414190 1.890403e-02 3.305800e-14 1 
    0.414368 2.072143e-02 3.620500e-14 1 
    0.414546 2.012975e-02 3.514100e-14 1 
    0.414725 2.158675e-02 3.765200e-14 1 
    0.414903 2.060340e-02 3.590600e-14 1 
    0.415081 1.967979e-02 3.426700e-14 1 
    0.415260 1.994049e-02 3.469100e-14 1 
    0.415438 2.008415e-02 3.491100e-14 1 
    0.415616 2.233888e-02 3.879700e-14 1 
    0.415795 2.074799e-02 3.600300e-14 1 
    0.415973 1.921134e-02 3.330800e-14 1 
    0.416152 1.922672e-02 3.330600e-14 1 
    0.416330 1.968458e-02 3.407000e-14 1 
    0.416508 2.087530e-02 3.610000e-14 1 
    0.416687 2.060386e-02 3.560000e-14 1 
    0.416865 2.189525e-02 3.779900e-14 1 
    0.417043 2.129652e-02 3.673400e-14 1 
    0.417222 1.970694e-02 3.396300e-14 1 
    0.417400 2.108095e-02 3.630000e-14 1 
    0.417579 2.149138e-02 3.697500e-14 1 
    0.417757 2.145676e-02 3.688400e-14 1 
    0.417935 2.234724e-02 3.838200e-14 1 
    0.418114 2.172130e-02 3.727500e-14 1 
    0.418292 2.171005e-02 3.722400e-14 1 
    0.418470 2.150672e-02 3.684400e-14 1 
    0.418649 2.163321e-02 3.702900e-14 1 
    0.418827 2.028219e-02 3.468700e-14 1 
    0.419006 2.063076e-02 3.525300e-14 1 
    0.419184 2.203117e-02 3.761400e-14 1 
    0.419362 2.106915e-02 3.594100e-14 1 
    0.419541 1.950419e-02 3.324300e-14 1 
    0.419719 1.929877e-02 3.286500e-14 1 
    0.419897 2.093312e-02 3.561800e-14 1 
    0.420076 2.096214e-02 3.563700e-14 1 
    0.420254 2.021223e-02 3.433300e-14 1 
    0.420433 2.160703e-02 3.667100e-14 1 
    0.420611 2.222802e-02 3.769300e-14 1 
    0.420789 2.226926e-02 3.773100e-14 1 
    0.420968 2.191843e-02 3.710500e-14 1 
    0.421146 2.198071e-02 3.717900e-14 1 
    0.421324 2.273539e-02 3.842300e-14 1 
    0.421503 2.180539e-02 3.682000e-14 1 
    0.421681 2.067572e-02 3.488300e-14 1 
    0.421860 2.072650e-02 3.493900e-14 1 
    0.422038 1.933984e-02 3.257400e-14 1 
    0.422216 2.067236e-02 3.478900e-14 1 
    0.422395 2.330431e-02 3.918500e-14 1 
    0.422573 2.272039e-02 3.817100e-14 1 
    0.422751 2.433251e-02 4.084500e-14 1 
    0.422930 2.359471e-02 3.957300e-14 1 
    0.423108 2.319746e-02 3.887400e-14 1 
    0.423287 2.265688e-02 3.793600e-14 1 
    0.423465 2.189111e-02 3.662300e-14 1 
    0.423643 2.269980e-02 3.794400e-14 1 
    0.423822 2.331773e-02 3.894400e-14 1 
    0.424000 2.441778e-02 4.074700e-14 1 
    0.424178 1.980816e-02 3.302700e-14 1 
    0.424357 1.855232e-02 3.090700e-14 1 
    0.424535 1.998630e-02 3.326800e-14 1 
    0.424713 2.199688e-02 3.658400e-14 1 
    0.424892 2.343321e-02 3.894000e-14 1 
    0.425070 2.294272e-02 3.809300e-14 1 
    0.425249 2.350697e-02 3.899700e-14 1 
    0.425427 2.337945e-02 3.875300e-14 1 
    0.425605 2.105204e-02 3.486600e-14 1 
    0.425784 2.215147e-02 3.665600e-14 1 
    0.425962 2.290000e-02 3.786300e-14 1 
    0.426140 2.393063e-02 3.953400e-14 1 
    0.426319 2.423790e-02 4.000800e-14 1 
    0.426497 2.290420e-02 3.777500e-14 1 
    0.426676 2.185175e-02 3.600900e-14 1 
    0.426854 2.000968e-02 3.294600e-14 1 
    0.427032 2.082023e-02 3.425200e-14 1 
    0.427211 2.279175e-02 3.746400e-14 1 
    0.427389 2.209837e-02 3.629400e-14 1 
    0.427567 2.395832e-02 3.931600e-14 1 
    0.427746 2.292145e-02 3.758300e-14 1 
    0.427924 2.172768e-02 3.559600e-14 1 
    0.428103 2.153753e-02 3.525500e-14 1 
    0.428281 2.266884e-02 3.707600e-14 1 
    0.428459 2.440413e-02 3.988100e-14 1 
    0.428638 2.212912e-02 3.613300e-14 1 
    0.428816 2.081067e-02 3.395200e-14 1 
    0.428994 2.189720e-02 3.569500e-14 1 
    0.429173 2.004657e-02 3.265100e-14 1 
    0.429351 2.030407e-02 3.304300e-14 1 
    0.429530 2.174839e-02 3.536400e-14 1 
    0.429708 2.234745e-02 3.630800e-14 1 
    0.429886 2.325733e-02 3.775500e-14 1 
    0.430065 2.311455e-02 3.749200e-14 1 
    0.430243 2.250618e-02 3.647500e-14 1 
    0.430421 2.222406e-02 3.598800e-14 1 
    0.430600 2.035439e-02 3.293300e-14 1 
    0.430778 2.041328e-02 3.300100e-14 1 
    0.430957 2.097875e-02 3.388700e-14 1 
    0.431135 1.992296e-02 3.215500e-14 1 
    0.431313 2.059114e-02 3.320600e-14 1 
    0.431492 1.941044e-02 3.127600e-14 1 
    0.431670 1.769786e-02 2.849300e-14 1 
    0.431848 1.674829e-02 2.694200e-14 1 
    0.432027 1.562612e-02 2.511600e-14 1 
    0.432205 1.557361e-02 2.501100e-14 1 
    0.432384 1.564634e-02 2.510700e-14 1 
    0.432562 1.601474e-02 2.567700e-14 1 
    0.432740 1.675512e-02 2.684200e-14 1 
    0.432919 1.883060e-02 3.014200e-14 1 
    0.433097 2.021600e-02 3.233300e-14 1 
    0.433275 2.239586e-02 3.579000e-14 1 
    0.433454 2.455623e-02 3.921000e-14 1 
    0.433632 2.440591e-02 3.893800e-14 1 
    0.433811 2.525536e-02 4.026000e-14 1 
    0.433989 2.496030e-02 3.975700e-14 1 
    0.434167 2.354880e-02 3.747800e-14 1 
    0.434346 2.216084e-02 3.524000e-14 1 
    0.434524 2.157419e-02 3.427900e-14 1 
    0.434702 2.299588e-02 3.650800e-14 1 
    0.434881 2.468288e-02 3.915400e-14 1 
    0.435059 2.588480e-02 4.102700e-14 1 
    0.435238 2.585685e-02 4.094900e-14 1 
    0.435416 2.401121e-02 3.799500e-14 1 
    0.435594 2.193229e-02 3.467700e-14 1 
    0.435773 2.174903e-02 3.435900e-14 1 
    0.435951 2.274937e-02 3.591000e-14 1 
    0.436129 2.421481e-02 3.819200e-14 1 
    0.436308 2.500250e-02 3.940200e-14 1 
    0.436486 2.593930e-02 4.084500e-14 1 
    0.436665 2.345001e-02 3.689500e-14 1 
    0.436843 2.006724e-02 3.154700e-14 1 
    0.437021 2.162040e-02 3.396100e-14 1 
    0.437200 2.242372e-02 3.519400e-14 1 
    0.437378 2.375621e-02 3.725500e-14 1 
    0.437556 2.574946e-02 4.034800e-14 1 
    0.437735 2.582801e-02 4.043800e-14 1 
    0.437913 2.578893e-02 4.034400e-14 1 
    0.438092 2.706329e-02 4.230300e-14 1 
    0.438270 2.735100e-02 4.271800e-14 1 
    0.438448 2.688750e-02 4.196000e-14 1 
    0.438627 2.733144e-02 4.261800e-14 1 
    0.438805 2.657958e-02 4.141200e-14 1 
    0.438983 2.494644e-02 3.883600e-14 1 
    0.439162 2.486715e-02 3.868100e-14 1 
    0.439340 2.467241e-02 3.834700e-14 1 
    0.439518 2.430542e-02 3.774600e-14 1 
    0.439697 2.536084e-02 3.935300e-14 1 
    0.439875 2.479962e-02 3.845100e-14 1 
    0.440054 2.471265e-02 3.828500e-14 1 
    0.440232 2.417707e-02 3.742500e-14 1 
    0.440410 2.271218e-02 3.512900e-14 1 
    0.440589 2.313571e-02 3.575500e-14 1 
    0.440767 2.453053e-02 3.788000e-14 1 
    0.440945 2.470006e-02 3.811100e-14 1 
    0.441124 2.594149e-02 3.999400e-14 1 
    0.441302 2.565863e-02 3.952600e-14 1 
    0.441481 2.580418e-02 3.971800e-14 1 
    0.441659 2.608833e-02 4.012300e-14 1 
    0.441837 2.626945e-02 4.036900e-14 1 
    0.442016 2.606280e-02 4.001900e-14 1 
    0.442194 2.577745e-02 3.954900e-14 1 
    0.442372 2.447728e-02 3.752400e-14 1 
    0.442551 2.502980e-02 3.834000e-14 1 
    0.442729 2.706949e-02 4.143100e-14 1 
    0.442908 2.654473e-02 4.059500e-14 1 
    0.443086 2.716028e-02 4.150300e-14 1 
    0.443264 2.821561e-02 4.308100e-14 1 
    0.443443 2.757507e-02 4.206900e-14 1 
    0.443621 2.669258e-02 4.069000e-14 1 
    0.443799 2.770143e-02 4.219400e-14 1 
    0.443978 2.871264e-02 4.369900e-14 1 
    0.444156 2.844107e-02 4.325100e-14 1 
    0.444335 2.899049e-02 4.405100e-14 1 
    0.444513 2.793487e-02 4.241300e-14 1 
    0.444691 2.720250e-02 4.126800e-14 1 
    0.444870 2.771258e-02 4.200800e-14 1 
    0.445048 2.889742e-02 4.376900e-14 1 
    0.445226 2.753494e-02 4.167200e-14 1 
    0.445405 2.761395e-02 4.175800e-14 1 
    0.445583 2.930645e-02 4.428200e-14 1 
    0.445762 2.873521e-02 4.338400e-14 1 
    0.445940 2.900011e-02 4.374900e-14 1 
    0.446118 2.857548e-02 4.307400e-14 1 
    0.446297 2.836072e-02 4.271600e-14 1 
    0.446475 2.957008e-02 4.450200e-14 1 
    0.446653 3.031585e-02 4.558800e-14 1 
    0.446832 3.097241e-02 4.653800e-14 1 
    0.447010 3.024245e-02 4.540500e-14 1 
    0.447189 2.880483e-02 4.321200e-14 1 
    0.447367 2.750152e-02 4.122400e-14 1 
    0.447545 2.720361e-02 4.074500e-14 1 
    0.447724 2.767172e-02 4.141300e-14 1 
    0.447902 2.726374e-02 4.077000e-14 1 
    0.448080 2.698291e-02 4.031800e-14 1 
    0.448259 2.784439e-02 4.157200e-14 1 
    0.448437 2.860051e-02 4.266700e-14 1 
    0.448615 3.098998e-02 4.619500e-14 1 
    0.448794 3.002778e-02 4.472500e-14 1 
    0.448972 2.872322e-02 4.274800e-14 1 
    0.449151 3.027125e-02 4.501600e-14 1 
    0.449329 3.128993e-02 4.649400e-14 1 
    0.449507 3.293656e-02 4.890200e-14 1 
    0.449686 3.180342e-02 4.718200e-14 1 
    0.449864 3.241955e-02 4.805800e-14 1 
    0.450042 3.215558e-02 4.762900e-14 1 
    0.450221 3.129537e-02 4.631800e-14 1 
    0.450399 3.286320e-02 4.860000e-14 1 
    0.450578 3.323446e-02 4.911000e-14 1 
    0.450756 3.265118e-02 4.821000e-14 1 
    0.450934 3.108616e-02 4.586300e-14 1 
    0.451113 2.987830e-02 4.404600e-14 1 
    0.451291 2.943889e-02 4.336400e-14 1 
    0.451469 3.189578e-02 4.694600e-14 1 
    0.451648 3.307156e-02 4.863800e-14 1 
    0.451826 3.286354e-02 4.829400e-14 1 
    0.452005 3.371907e-02 4.951200e-14 1 
    0.452183 3.581964e-02 5.255500e-14 1 
    0.452361 3.672025e-02 5.383400e-14 1 
    0.452540 3.559634e-02 5.214500e-14 1 
    0.452718 3.585868e-02 5.248800e-14 1 
    0.452896 3.492831e-02 5.108600e-14 1 
    0.453075 3.362573e-02 4.914200e-14 1 
    0.453253 3.376446e-02 4.930600e-14 1 
    0.453432 3.424140e-02 4.996300e-14 1 
    0.453610 3.374154e-02 4.919500e-14 1 
    0.453788 3.264849e-02 4.756400e-14 1 
    0.453967 3.236718e-02 4.711700e-14 1 
    0.454145 3.274114e-02 4.762400e-14 1 
    0.454323 3.126139e-02 4.543600e-14 1 
    0.454502 3.274167e-02 4.755000e-14 1 
    0.454680 3.137049e-02 4.552300e-14 1 
    0.454859 2.941450e-02 4.265100e-14 1 
    0.455037 2.875562e-02 4.166300e-14 1 
    0.455215 3.013472e-02 4.362700e-14 1 
    0.455394 3.048333e-02 4.409700e-14 1 
    0.455572 3.141829e-02 4.541400e-14 1 
    0.455750 3.528337e-02 5.096100e-14 1 
    0.455929 3.380194e-02 4.878300e-14 1 
    0.456107 3.261065e-02 4.702700e-14 1 
    0.456286 3.249954e-02 4.683000e-14 1 
    0.456464 3.256171e-02 4.688300e-14 1 
    0.456642 3.389176e-02 4.876000e-14 1 
    0.456821 3.179392e-02 4.570600e-14 1 
    0.456999 3.108635e-02 4.465400e-14 1 
    0.457177 3.350304e-02 4.808800e-14 1 
    0.457356 3.293662e-02 4.723800e-14 1 
    0.457534 3.390707e-02 4.859200e-14 1 
    0.457713 3.475694e-02 4.977100e-14 1 
    0.457891 3.468894e-02 4.963500e-14 1 
    0.458069 3.422072e-02 4.892700e-14 1 
    0.458248 3.427267e-02 4.896300e-14 1 
    0.458426 3.482398e-02 4.971200e-14 1 
    0.458604 3.499475e-02 4.991700e-14 1 
    0.458783 3.583945e-02 5.108200e-14 1 
    0.458961 3.527815e-02 5.024300e-14 1 
    0.459140 3.339364e-02 4.752200e-14 1 
    0.459318 3.489142e-02 4.961500e-14 1 
    0.459496 3.443848e-02 4.893300e-14 1 
    0.459675 3.486187e-02 4.949600e-14 1 
    0.459853 3.506297e-02 4.974300e-14 1 
    0.460031 3.338299e-02 4.732300e-14 1 
    0.460210 3.360453e-02 4.760000e-14 1 
    0.460388 3.441759e-02 4.871400e-14 1 
    0.460567 3.312850e-02 4.685300e-14 1 
    0.460745 3.385112e-02 4.783800e-14 1 
    0.460923 3.476178e-02 4.908700e-14 1 
    0.461102 3.509353e-02 4.951700e-14 1 
    0.461280 3.463478e-02 4.883200e-14 1 
    0.461458 3.447839e-02 4.857400e-14 1 
    0.461637 3.449023e-02 4.855300e-14 1 
    0.461815 3.289311e-02 4.626900e-14 1 
    0.461994 3.365071e-02 4.729800e-14 1 
    0.462172 3.486784e-02 4.897100e-14 1 
    0.462350 3.387716e-02 4.754300e-14 1 
    0.462529 3.584377e-02 5.026400e-14 1 
    0.462707 3.695613e-02 5.178400e-14 1 
    0.462885 3.727668e-02 5.219300e-14 1 
    0.463064 3.860638e-02 5.401300e-14 1 
    0.463242 3.775552e-02 5.278200e-14 1 
    0.463420 3.745024e-02 5.231500e-14 1 
    0.463599 3.782950e-02 5.280400e-14 1 
    0.463777 3.661247e-02 5.106600e-14 1 
    0.463956 3.574384e-02 4.981600e-14 1 
    0.464134 3.721458e-02 5.182600e-14 1 
    0.464312 3.630175e-02 5.051600e-14 1 
    0.464491 3.775946e-02 5.250400e-14 1 
    0.464669 3.739831e-02 5.196200e-14 1 
    0.464847 3.491465e-02 4.847400e-14 1 
    0.465026 3.665784e-02 5.085500e-14 1 
    0.465204 3.711441e-02 5.144900e-14 1 
    0.465383 3.771909e-02 5.224700e-14 1 
    0.465561 3.594172e-02 4.974700e-14 1 
    0.465739 3.564239e-02 4.929500e-14 1 
    0.465918 3.545054e-02 4.899200e-14 1 
    0.466096 3.373532e-02 4.658600e-14 1 
    0.466274 3.574099e-02 4.931800e-14 1 
    0.466453 3.664745e-02 5.053000e-14 1 
    0.466631 3.307829e-02 4.557400e-14 1 
    0.466810 3.544041e-02 4.879100e-14 1 
    0.466988 3.479358e-02 4.786400e-14 1 
    0.467166 3.531553e-02 4.854500e-14 1 
    0.467345 3.439833e-02 4.724800e-14 1 
    0.467523 3.492654e-02 4.793700e-14 1 
    0.467701 3.711652e-02 5.090400e-14 1 
    0.467880 3.791185e-02 5.195500e-14 1 
    0.468058 3.742076e-02 5.124300e-14 1 
    0.468237 3.723818e-02 5.095400e-14 1 
    0.468415 3.544757e-02 4.846700e-14 1 
    0.468593 3.517516e-02 4.805800e-14 1 
    0.468772 3.541739e-02 4.835200e-14 1 
    0.468950 3.531674e-02 4.817800e-14 1 
    0.469128 3.494667e-02 4.763700e-14 1 
    0.469307 3.534336e-02 4.814100e-14 1 
    0.469485 3.687122e-02 5.018400e-14 1 
    0.469664 3.657876e-02 4.974800e-14 1 
    0.469842 3.607300e-02 4.902300e-14 1 
    0.470020 3.675868e-02 4.991700e-14 1 
    0.470199 3.576969e-02 4.853700e-14 1 
    0.470377 3.724377e-02 5.049900e-14 1 
    0.470555 3.597886e-02 4.874700e-14 1 
    0.470734 3.678476e-02 4.980100e-14 1 
    0.470912 3.725315e-02 5.039700e-14 1 
    0.471090 3.757351e-02 5.079200e-14 1 
    0.471269 3.779456e-02 5.105200e-14 1 
    0.471447 3.796314e-02 5.124100e-14 1 
    0.471626 3.682495e-02 4.966700e-14 1 
    0.471804 3.652850e-02 4.923000e-14 1 
    0.471982 3.713080e-02 5.000400e-14 1 
    0.472161 3.711810e-02 4.994900e-14 1 
    0.472339 3.487267e-02 4.689200e-14 1 
    0.472517 3.476276e-02 4.670900e-14 1 
    0.472696 3.641575e-02 4.889300e-14 1 
    0.472874 3.694780e-02 4.957000e-14 1 
    0.473053 3.617688e-02 4.849900e-14 1 
    0.473231 3.588088e-02 4.806600e-14 1 
    0.473409 3.765150e-02 5.040000e-14 1 
    0.473588 3.795510e-02 5.076800e-14 1 
    0.473766 3.891588e-02 5.201400e-14 1 
    0.473944 3.951117e-02 5.277000e-14 1 
    0.474123 4.083058e-02 5.449100e-14 1 
    0.474301 3.996290e-02 5.329300e-14 1 
    0.474480 3.916759e-02 5.219300e-14 1 
    0.474658 3.883950e-02 5.171700e-14 1 
    0.474836 3.760827e-02 5.004000e-14 1 
    0.475015 3.657161e-02 4.862400e-14 1 
    0.475193 3.650870e-02 4.850400e-14 1 
    0.475371 3.833032e-02 5.088600e-14 1 
    0.475550 3.792046e-02 5.030400e-14 1 
    0.475728 3.801071e-02 5.038600e-14 1 
    0.475907 3.746555e-02 4.962600e-14 1 
    0.476085 3.946626e-02 5.223700e-14 1 
    0.476263 3.988970e-02 5.275800e-14 1 
    0.476442 3.923567e-02 5.185400e-14 1 
    0.476620 3.817611e-02 5.041600e-14 1 
    0.476798 4.002029e-02 5.281200e-14 1 
    0.476977 4.031880e-02 5.316600e-14 1 
    0.477155 3.937672e-02 5.188500e-14 1 
    0.477334 3.927564e-02 5.171300e-14 1 
    0.477512 3.967432e-02 5.219900e-14 1 
    0.477690 3.907715e-02 5.137500e-14 1 
    0.477869 3.854468e-02 5.063700e-14 1 
    0.478047 3.771413e-02 4.950900e-14 1 
    0.478225 3.863339e-02 5.067800e-14 1 
    0.478404 3.782083e-02 4.957500e-14 1 
    0.478582 3.642358e-02 4.770800e-14 1 
    0.478761 3.708728e-02 4.854100e-14 1 
    0.478939 3.791464e-02 4.958700e-14 1 
    0.479117 3.785484e-02 4.947200e-14 1 
    0.479296 3.821240e-02 4.990200e-14 1 
    0.479474 3.938030e-02 5.138900e-14 1 
    0.479652 3.959820e-02 5.163500e-14 1 
    0.479831 3.956713e-02 5.155600e-14 1 
    0.480009 4.025776e-02 5.241700e-14 1 
    0.480188 3.911414e-02 5.089000e-14 1 
    0.480366 3.766787e-02 4.897200e-14 1 
    0.480544 3.883809e-02 5.045600e-14 1 
    0.480723 3.682955e-02 4.781100e-14 1 
    0.480901 3.776493e-02 4.898900e-14 1 
    0.481079 3.794101e-02 4.918100e-14 1 
    0.481258 3.854518e-02 4.992700e-14 1 
    0.481436 4.088378e-02 5.291700e-14 1 
    0.481615 3.963768e-02 5.126600e-14 1 
    0.481793 3.908126e-02 5.050900e-14 1 
    0.481971 3.952749e-02 5.104800e-14 1 
    0.482150 4.038910e-02 5.212200e-14 1 
    0.482328 4.007461e-02 5.167800e-14 1 
    0.482506 3.819126e-02 4.921300e-14 1 
    0.482685 3.916863e-02 5.043500e-14 1 
    0.482863 3.911125e-02 5.032400e-14 1 
    0.483042 3.951903e-02 5.081100e-14 1 
    0.483220 3.989842e-02 5.126100e-14 1 
    0.483398 3.851175e-02 4.944300e-14 1 
    0.483577 3.897056e-02 4.999500e-14 1 
    0.483755 4.058902e-02 5.203300e-14 1 
    0.483933 4.156971e-02 5.325100e-14 1 
    0.484112 4.019038e-02 5.144600e-14 1 
    0.484290 3.976493e-02 5.086400e-14 1 
    0.484469 3.940315e-02 5.036400e-14 1 
    0.484647 3.997939e-02 5.106300e-14 1 
    0.484825 3.949007e-02 5.040100e-14 1 
    0.485004 3.902683e-02 4.977300e-14 1 
    0.485182 4.020188e-02 5.123400e-14 1 
    0.485360 4.025180e-02 5.126000e-14 1 
    0.485539 3.960097e-02 5.039400e-14 1 
    0.485717 3.987458e-02 5.070500e-14 1 
    0.485896 3.994726e-02 5.076000e-14 1 
    0.486074 3.920079e-02 4.977500e-14 1 
    0.486252 3.867781e-02 4.907500e-14 1 
    0.486431 4.019302e-02 5.096000e-14 1 
    0.486609 3.961311e-02 5.018800e-14 1 
    0.486787 3.904179e-02 4.942800e-14 1 
    0.486966 3.998902e-02 5.059000e-14 1 
    0.487144 3.965280e-02 5.012800e-14 1 
    0.487322 3.877381e-02 4.898100e-14 1 
    0.487501 3.830955e-02 4.835900e-14 1 
    0.487679 3.694226e-02 4.659900e-14 1 
    0.487858 3.533112e-02 4.453400e-14 1 
    0.488036 3.414059e-02 4.300200e-14 1 
    0.488214 3.315251e-02 4.172700e-14 1 
    0.488393 3.359027e-02 4.224700e-14 1 
    0.488571 3.358213e-02 4.220600e-14 1 
    0.488749 3.521504e-02 4.422600e-14 1 
    0.488928 3.573965e-02 4.485200e-14 1 
    0.489106 3.653359e-02 4.581500e-14 1 
    0.489285 3.662179e-02 4.589200e-14 1 
    0.489463 3.747656e-02 4.692900e-14 1 
    0.489641 3.689487e-02 4.616700e-14 1 
    0.489820 3.855013e-02 4.820300e-14 1 
    0.489998 4.052135e-02 5.063100e-14 1 
    0.490176 3.921888e-02 4.896800e-14 1 
    0.490355 3.968915e-02 4.951900e-14 1 
    0.490533 3.957761e-02 4.934400e-14 1 
    0.490712 3.881427e-02 4.835700e-14 1 
    0.490890 3.652588e-02 4.547300e-14 1 
    0.491068 3.869699e-02 4.814100e-14 1 
    0.491247 3.939608e-02 4.897500e-14 1 
    0.491425 4.011532e-02 4.983300e-14 1 
    0.491603 4.106435e-02 5.097500e-14 1 
    0.491782 4.232044e-02 5.249600e-14 1 
    0.491960 4.245919e-02 5.263000e-14 1 
    0.492139 4.316987e-02 5.347200e-14 1 
    0.492317 4.221302e-02 5.224900e-14 1 
    0.492495 4.181423e-02 5.171800e-14 1 
    0.492674 4.123134e-02 5.096000e-14 1 
    0.492852 4.089274e-02 5.050500e-14 1 
    0.493030 3.999696e-02 4.936300e-14 1 
    0.493209 4.115066e-02 5.075000e-14 1 
    0.493387 4.168184e-02 5.136800e-14 1 
    0.493566 4.105841e-02 5.056300e-14 1 
    0.493744 4.063052e-02 5.000000e-14 1 
    0.493922 4.057200e-02 4.989200e-14 1 
    0.494101 3.920576e-02 4.817700e-14 1 
    0.494279 3.628762e-02 4.455900e-14 1 
    0.494457 3.733490e-02 4.581200e-14 1 
    0.494636 4.000024e-02 4.904700e-14 1 
    0.494814 4.140750e-02 5.073600e-14 1 
    0.494992 4.056993e-02 4.967400e-14 1 
    0.495171 4.187183e-02 5.123100e-14 1 
    0.495349 4.242050e-02 5.186500e-14 1 
    0.495528 4.251008e-02 5.193700e-14 1 
    0.495706 3.959194e-02 4.833700e-14 1 
    0.495884 4.047939e-02 4.938500e-14 1 
    0.496063 4.309244e-02 5.253500e-14 1 
    0.496241 4.194792e-02 5.110300e-14 1 
    0.496419 4.273539e-02 5.202500e-14 1 
    0.496598 4.366634e-02 5.312000e-14 1 
    0.496776 4.326576e-02 5.259500e-14 1 
    0.496955 4.407571e-02 5.354100e-14 1 
    0.497133 4.411965e-02 5.355600e-14 1 
    0.497311 4.426419e-02 5.369300e-14 1 
    0.497490 4.229712e-02 5.127000e-14 1 
    0.497668 4.127973e-02 5.000100e-14 1 
    0.497846 4.272945e-02 5.172000e-14 1 
    0.498025 3.988801e-02 4.824600e-14 1 
    0.498203 4.076042e-02 4.926600e-14 1 
    0.498382 4.234875e-02 5.114900e-14 1 
    0.498560 4.251157e-02 5.130900e-14 1 
    0.498738 4.306429e-02 5.193900e-14 1 
    0.498917 4.106901e-02 4.949700e-14 1 
    0.499095 4.304791e-02 5.184500e-14 1 
    0.499273 4.202586e-02 5.057800e-14 1 
    0.499452 4.267796e-02 5.132600e-14 1 
    0.499630 4.195034e-02 5.041500e-14 1 
    0.499809 4.087709e-02 4.909000e-14 1 
    0.499987 4.262195e-02 5.114900e-14 1 
    0.500165 4.118550e-02 4.939000e-14 1 
    0.500344 4.079774e-02 4.889000e-14 1 
    0.500522 4.051029e-02 4.851100e-14 1 
    0.500700 3.992405e-02 4.777500e-14 1 
    0.500879 4.055388e-02 4.849400e-14 1 
    0.501057 4.076681e-02 4.871400e-14 1 
    0.501235 4.087283e-02 4.880600e-14 1 
    0.501414 4.249182e-02 5.070300e-14 1 
    0.501592 4.374306e-02 5.215900e-14 1 
    0.501771 4.315157e-02 5.141700e-14 1 
    0.501949 4.170995e-02 4.966400e-14 1 
    0.502127 4.097557e-02 4.875500e-14 1 
    0.502306 4.150101e-02 4.934500e-14 1 
    0.502484 3.946000e-02 4.688500e-14 1 
    0.502662 4.013228e-02 4.765000e-14 1 
    0.502841 4.009007e-02 4.756600e-14 1 
    0.503019 4.001639e-02 4.744500e-14 1 
    0.503198 3.946841e-02 4.676200e-14 1 
    0.503376 3.928095e-02 4.650700e-14 1 
    0.503554 3.937214e-02 4.658200e-14 1 
    0.503733 3.833694e-02 4.532500e-14 1 
    0.503911 4.041745e-02 4.775100e-14 1 
    0.504090 4.062743e-02 4.796500e-14 1 
    0.504268 3.976782e-02 4.691700e-14 1 
    0.504446 4.062716e-02 4.789700e-14 1 
    0.504625 4.067976e-02 4.792500e-14 1 
    0.504803 4.103209e-02 4.830600e-14 1 
    0.504981 4.224086e-02 4.969400e-14 1 
    0.505160 4.197905e-02 4.935100e-14 1 
    0.505338 4.086119e-02 4.800300e-14 1 
    0.505517 4.152901e-02 4.875300e-14 1 
    0.505695 4.087888e-02 4.795600e-14 1 
    0.505873 3.974073e-02 4.658800e-14 1 
    0.506052 3.847219e-02 4.506900e-14 1 
    0.506230 3.826691e-02 4.479700e-14 1 
    0.506408 3.899479e-02 4.561700e-14 1 
    0.506587 4.231151e-02 4.946200e-14 1 
    0.506765 4.136708e-02 4.832400e-14 1 
    0.506944 4.212959e-02 4.918000e-14 1 
    0.507122 4.357706e-02 5.083400e-14 1 
    0.507300 4.171611e-02 4.862900e-14 1 
    0.507479 4.118327e-02 4.797400e-14 1 
    0.507657 4.337096e-02 5.048700e-14 1 
    0.507835 4.329393e-02 5.036200e-14 1 
    0.508014 4.408579e-02 5.124700e-14 1 
    0.508192 4.583497e-02 5.324300e-14 1 
    0.508370 4.458781e-02 5.175800e-14 1 
    0.508549 4.430024e-02 5.138800e-14 1 
    0.508727 4.303896e-02 4.989000e-14 1 
    0.508906 4.192886e-02 4.856900e-14 1 
    0.509084 4.014575e-02 4.647100e-14 1 
    0.509262 4.225381e-02 4.887700e-14 1 
    0.509441 4.307076e-02 4.978700e-14 1 
    0.509619 4.203344e-02 4.855400e-14 1 
    0.509797 4.177520e-02 4.822200e-14 1 
    0.509976 4.056224e-02 4.678900e-14 1 
    0.510154 4.061659e-02 4.681900e-14 1 
    0.510333 4.089252e-02 4.710400e-14 1 
    0.510511 3.930606e-02 4.524500e-14 1 
    0.510689 4.073399e-02 4.685600e-14 1 
    0.510868 4.276519e-02 4.915800e-14 1 
    0.511046 4.340003e-02 4.985300e-14 1 
    0.511224 4.410194e-02 5.062400e-14 1 
    0.511403 4.421041e-02 5.071300e-14 1 
    0.511581 4.292303e-02 4.920200e-14 1 
    0.511760 4.333020e-02 4.963400e-14 1 
    0.511938 4.255139e-02 4.870800e-14 1 
    0.512116 4.177759e-02 4.778900e-14 1 
    0.512295 4.206750e-02 4.808700e-14 1 
    0.512473 4.265876e-02 4.872900e-14 1 
    0.512651 4.218292e-02 4.815200e-14 1 
    0.512830 4.182403e-02 4.770900e-14 1 
    0.513008 4.065298e-02 4.634100e-14 1 
    0.513187 4.116331e-02 4.689000e-14 1 
    0.513365 4.179099e-02 4.757200e-14 1 
    0.513543 4.237820e-02 4.820700e-14 1 
    0.513722 4.495184e-02 5.109900e-14 1 
    0.513900 4.543900e-02 5.161700e-14 1 
    0.514078 4.371216e-02 4.962100e-14 1 
    0.514257 4.333710e-02 4.916100e-14 1 
    0.514435 4.250790e-02 4.818700e-14 1 
    0.514614 4.155145e-02 4.707000e-14 1 
    0.514792 4.200951e-02 4.755600e-14 1 
    0.514970 4.171592e-02 4.719100e-14 1 
    0.515149 4.095675e-02 4.630000e-14 1 
    0.515327 4.269793e-02 4.823500e-14 1 
    0.515505 4.272123e-02 4.822800e-14 1 
    0.515684 4.285107e-02 4.834100e-14 1 
    0.515862 4.381472e-02 4.939400e-14 1 
    0.516041 4.278082e-02 4.819500e-14 1 
    0.516219 4.052570e-02 4.562300e-14 1 
    0.516397 4.201943e-02 4.727200e-14 1 
    0.516576 4.256892e-02 4.785700e-14 1 
    0.516754 4.175087e-02 4.690500e-14 1 
    0.516932 4.200321e-02 4.715600e-14 1 
    0.517111 4.366436e-02 4.898700e-14 1 
    0.517289 4.370246e-02 4.899600e-14 1 
    0.517468 4.242508e-02 4.753100e-14 1 
    0.517646 4.178527e-02 4.678200e-14 1 
    0.517824 4.253800e-02 4.759200e-14 1 
    0.518003 4.278923e-02 4.784000e-14 1 
    0.518181 4.361612e-02 4.873100e-14 1 
    0.518359 4.462773e-02 4.982700e-14 1 
    0.518538 4.261505e-02 4.754700e-14 1 
    0.518716 3.931507e-02 4.383500e-14 1 
    0.518894 3.726703e-02 4.152300e-14 1 
    0.519073 3.487680e-02 3.883300e-14 1 
    0.519251 3.371977e-02 3.751900e-14 1 
    0.519430 3.369536e-02 3.746600e-14 1 
    0.519608 3.395605e-02 3.773000e-14 1 
    0.519786 3.639561e-02 4.041300e-14 1 
    0.519965 3.894227e-02 4.321100e-14 1 
    0.520143 3.866683e-02 4.287600e-14 1 
    0.520321 3.723043e-02 4.125500e-14 1 
    0.520500 3.574160e-02 3.957800e-14 1 
    0.520678 3.520577e-02 3.895800e-14 1 
    0.520857 3.590821e-02 3.970800e-14 1 
    0.521035 3.971806e-02 4.389100e-14 1 
    0.521213 4.132718e-02 4.563800e-14 1 
    0.521392 4.201345e-02 4.636400e-14 1 
    0.521570 4.316656e-02 4.760400e-14 1 
    0.521748 4.241112e-02 4.673900e-14 1 
    0.521927 4.240663e-02 4.670200e-14 1 
    0.522105 4.262910e-02 4.691500e-14 1 
    0.522284 4.321662e-02 4.752900e-14 1 
    0.522462 4.355545e-02 4.786900e-14 1 
    0.522640 4.136804e-02 4.543400e-14 1 
    0.522819 4.077499e-02 4.475200e-14 1 
    0.522997 4.056115e-02 4.448700e-14 1 
    0.523175 4.021104e-02 4.407300e-14 1 
    0.523354 4.121182e-02 4.513900e-14 1 
    0.523532 4.227224e-02 4.626900e-14 1 
    0.523711 4.517828e-02 4.941600e-14 1 
    0.523889 4.649530e-02 5.082200e-14 1 
    0.524067 4.590986e-02 5.014800e-14 1 
    0.524246 4.637272e-02 5.061900e-14 1 
    0.524424 4.555349e-02 4.969100e-14 1 
    0.524602 4.487163e-02 4.891400e-14 1 
    0.524781 4.319205e-02 4.705100e-14 1 
    0.524959 4.380099e-02 4.768200e-14 1 
    0.525138 4.489166e-02 4.883600e-14 1 
    0.525316 4.489911e-02 4.881100e-14 1 
    0.525494 4.551128e-02 4.944300e-14 1 
    0.525673 4.659235e-02 5.058300e-14 1 
    0.525851 4.776594e-02 5.182200e-14 1 
    0.526029 4.859427e-02 5.268500e-14 1 
    0.526208 4.786220e-02 5.185600e-14 1 
    0.526386 4.768769e-02 5.163200e-14 1 
    0.526565 4.800110e-02 5.193600e-14 1 
    0.526743 4.756743e-02 5.143200e-14 1 
    0.526921 4.774303e-02 5.158700e-14 1 
    0.527100 4.622516e-02 4.991300e-14 1 
    0.527278 4.417122e-02 4.766300e-14 1 
    0.527456 4.568855e-02 4.926700e-14 1 
    0.527635 4.632276e-02 4.991700e-14 1 
    0.527813 4.689447e-02 5.049900e-14 1 
    0.527992 4.660198e-02 5.015000e-14 1 
    0.528170 4.676173e-02 5.028800e-14 1 
    0.528348 4.720175e-02 5.072700e-14 1 
    0.528527 4.587334e-02 4.926600e-14 1 
    0.528705 4.322263e-02 4.638800e-14 1 
    0.528883 4.149978e-02 4.450900e-14 1 
    0.529062 4.146817e-02 4.444500e-14 1 
    0.529240 4.253149e-02 4.555400e-14 1 
    0.529419 4.176986e-02 4.470800e-14 1 
    0.529597 4.230561e-02 4.525100e-14 1 
    0.529775 4.685270e-02 5.008100e-14 1 
    0.529954 4.983705e-02 5.323500e-14 1 
    0.530132 4.874637e-02 5.203500e-14 1 
    0.530310 4.861788e-02 5.186300e-14 1 
    0.530489 4.817792e-02 5.135900e-14 1 
    0.530667 4.817083e-02 5.131700e-14 1 
    0.530845 4.818343e-02 5.129600e-14 1 
    0.531024 5.021992e-02 5.342800e-14 1 
    0.531202 5.058656e-02 5.378200e-14 1 
    0.531381 5.171623e-02 5.494600e-14 1 
    0.531559 5.155686e-02 5.474000e-14 1 
    0.531737 4.972340e-02 5.275800e-14 1 
    0.531916 4.742739e-02 5.028800e-14 1 
    0.532094 4.722792e-02 5.004300e-14 1 
    0.532272 4.714809e-02 4.992500e-14 1 
    0.532451 4.737731e-02 5.013400e-14 1 
    0.532629 4.812106e-02 5.088700e-14 1 
    0.532808 5.019076e-02 5.304000e-14 1 
    0.532986 5.140983e-02 5.429200e-14 1 
    0.533164 5.116939e-02 5.400200e-14 1 
    0.533343 5.073535e-02 5.350800e-14 1 
    0.533521 5.187364e-02 5.467200e-14 1 
    0.533699 5.122276e-02 5.395000e-14 1 
    0.533878 4.955932e-02 5.216300e-14 1 
    0.534056 5.016756e-02 5.276800e-14 1 
    0.534235 4.978831e-02 5.233400e-14 1 
    0.534413 4.951209e-02 5.200900e-14 1 
    0.534591 4.899447e-02 5.143100e-14 1 
    0.534770 4.698730e-02 4.929100e-14 1 
    0.534948 4.563543e-02 4.784100e-14 1 
    0.535126 4.430750e-02 4.641800e-14 1 
    0.535305 4.530665e-02 4.743300e-14 1 
    0.535483 4.760396e-02 4.980500e-14 1 
    0.535662 4.810062e-02 5.029100e-14 1 
    0.535840 4.960171e-02 5.182600e-14 1 
    0.536018 4.997754e-02 5.218400e-14 1 
    0.536197 4.842485e-02 5.052900e-14 1 
    0.536375 4.759198e-02 4.962700e-14 1 
    0.536553 4.920217e-02 5.127200e-14 1 
    0.536732 4.961815e-02 5.167100e-14 1 
    0.536910 4.952903e-02 5.154400e-14 1 
    0.537089 4.854282e-02 5.048400e-14 1 
    0.537267 4.894255e-02 5.086600e-14 1 
    0.537445 4.929177e-02 5.119500e-14 1 
    0.537624 5.061083e-02 5.253000e-14 1 
    0.537802 5.012951e-02 5.199600e-14 1 
    0.537980 5.259288e-02 5.451500e-14 1 
    0.538159 5.315885e-02 5.506500e-14 1 
    0.538337 5.208310e-02 5.391500e-14 1 
    0.538516 5.103894e-02 5.279900e-14 1 
    0.538694 5.093920e-02 5.266100e-14 1 
    0.538872 5.129617e-02 5.299500e-14 1 
    0.539051 5.017665e-02 5.180400e-14 1 
    0.539229 4.826748e-02 4.980000e-14 1 
    0.539407 4.944766e-02 5.098400e-14 1 
    0.539586 4.930094e-02 5.079900e-14 1 
    0.539764 4.960638e-02 5.108000e-14 1 
    0.539943 5.172378e-02 5.322500e-14 1 
    0.540121 5.200197e-02 5.347600e-14 1 
    0.540299 5.173947e-02 5.317100e-14 1 
    0.540478 5.032193e-02 5.168000e-14 1 
    0.540656 5.104201e-02 5.238500e-14 1 
    0.540834 5.090304e-02 5.220800e-14 1 
    0.541013 5.111529e-02 5.239100e-14 1 
    0.541191 5.062271e-02 5.185200e-14 1 
    0.541369 5.004543e-02 5.122700e-14 1 
    0.541548 4.997588e-02 5.112200e-14 1 
    0.541726 4.910779e-02 5.020100e-14 1 
    0.541905 4.915298e-02 5.021400e-14 1 
    0.542083 4.976319e-02 5.080400e-14 1 
    0.542261 4.962239e-02 5.062700e-14 1 
    0.542440 4.936778e-02 5.033400e-14 1 
    0.542618 4.682977e-02 4.771500e-14 1 
    0.542796 4.701960e-02 4.787700e-14 1 
    0.542975 4.704669e-02 4.787300e-14 1 
    0.543153 4.606662e-02 4.684500e-14 1 
    0.543332 4.831696e-02 4.910100e-14 1 
    0.543510 5.042925e-02 5.121400e-14 1 
    0.543688 4.933212e-02 5.006700e-14 1 
    0.543867 5.082582e-02 5.154900e-14 1 
    0.544045 5.136228e-02 5.205900e-14 1 
    0.544223 5.150350e-02 5.216800e-14 1 
    0.544402 5.110270e-02 5.172800e-14 1 
    0.544580 5.214346e-02 5.274700e-14 1 
    0.544759 5.139924e-02 5.196000e-14 1 
    0.544937 5.196340e-02 5.249600e-14 1 
    0.545115 5.172496e-02 5.222100e-14 1 
    0.545294 4.952984e-02 4.997200e-14 1 
    0.545472 4.850691e-02 4.890800e-14 1 
    0.545650 4.895043e-02 4.932300e-14 1 
    0.545829 5.063805e-02 5.099000e-14 1 
    0.546007 5.147899e-02 5.180300e-14 1 
    0.546186 5.208950e-02 5.238300e-14 1 
    0.546364 5.370658e-02 5.397400e-14 1 
    0.546542 5.310533e-02 5.333500e-14 1 
    0.546721 5.126201e-02 5.145000e-14 1 
    0.546899 4.908407e-02 4.923200e-14 1 
    0.547077 4.784402e-02 4.795700e-14 1 
    0.547256 4.786435e-02 4.794600e-14 1 
    0.547434 4.907724e-02 4.912900e-14 1 
    0.547613 5.035884e-02 5.037900e-14 1 
    0.547791 4.967342e-02 4.966100e-14 1 
    0.547969 5.169649e-02 5.165000e-14 1 
    0.548148 5.103219e-02 5.095300e-14 1 
    0.548326 5.226597e-02 5.215100e-14 1 
    0.548504 5.152371e-02 5.137700e-14 1 
    0.548683 5.094118e-02 5.076300e-14 1 
    0.548861 5.095215e-02 5.074100e-14 1 
    0.549040 5.182340e-02 5.157500e-14 1 
    0.549218 5.318223e-02 5.289300e-14 1 
    0.549396 5.160892e-02 5.129500e-14 1 
    0.549575 5.150261e-02 5.115600e-14 1 
    0.549753 5.145639e-02 5.107700e-14 1 
    0.549931 4.904009e-02 4.864700e-14 1 
    0.550110 4.889347e-02 4.847000e-14 1 
    0.550288 4.939549e-02 4.893600e-14 1 
    0.550467 4.988518e-02 4.938900e-14 1 
    0.550645 5.031668e-02 4.978400e-14 1 
    0.550823 5.107435e-02 5.050100e-14 1 
    0.551002 5.228958e-02 5.166900e-14 1 
    0.551180 5.259375e-02 5.193600e-14 1 
    0.551358 5.218998e-02 5.150400e-14 1 
    0.551537 5.385637e-02 5.311400e-14 1 
    0.551715 5.255385e-02 5.179600e-14 1 
    0.551893 5.267813e-02 5.188500e-14 1 
    0.552072 5.115791e-02 5.035500e-14 1 
    0.552250 5.063889e-02 4.981200e-14 1 
    0.552429 5.221694e-02 5.133100e-14 1 
    0.552607 5.350059e-02 5.255900e-14 1 
    0.552785 5.227510e-02 5.132200e-14 1 
    0.552964 5.233444e-02 5.134700e-14 1 
    0.553142 5.113203e-02 5.013500e-14 1 
    0.553320 5.065161e-02 4.963200e-14 1 
    0.553499 5.116538e-02 5.010300e-14 1 
    0.553677 4.987498e-02 4.880800e-14 1 
    0.553856 5.151668e-02 5.038200e-14 1 
    0.554034 5.253307e-02 5.134300e-14 1 
    0.554212 5.286170e-02 5.163100e-14 1 
    0.554391 5.461291e-02 5.330700e-14 1 
    0.554569 5.448806e-02 5.315100e-14 1 
    0.554747 5.259349e-02 5.127000e-14 1 
    0.554926 5.267260e-02 5.131400e-14 1 
    0.555104 5.232738e-02 5.094500e-14 1 
    0.555283 5.306827e-02 5.163300e-14 1 
    0.555461 5.182289e-02 5.038900e-14 1 
    0.555639 5.209589e-02 5.062200e-14 1 
    0.555818 5.273601e-02 5.121100e-14 1 
    0.555996 5.272548e-02 5.116800e-14 1 
    0.556174 5.400585e-02 5.237700e-14 1 
    0.556353 5.404679e-02 5.238300e-14 1 
    0.556531 5.418979e-02 5.248800e-14 1 
    0.556710 5.419264e-02 5.245700e-14 1 
    0.556888 5.505635e-02 5.325900e-14 1 
    0.557066 5.562532e-02 5.377500e-14 1 
    0.557245 5.552341e-02 5.364200e-14 1 
    0.557423 5.562931e-02 5.371000e-14 1 
    0.557601 5.498496e-02 5.305400e-14 1 
    0.557780 5.541954e-02 5.343900e-14 1 
    0.557958 5.561784e-02 5.359600e-14 1 
    0.558137 5.500454e-02 5.297100e-14 1 
    0.558315 5.373666e-02 5.171700e-14 1 
    0.558493 5.309928e-02 5.107100e-14 1 
    0.558672 4.934217e-02 4.742700e-14 1 
    0.558850 4.970987e-02 4.775000e-14 1 
    0.559028 5.210100e-02 5.001500e-14 1 
    0.559207 5.439008e-02 5.217900e-14 1 
    0.559385 5.407842e-02 5.184700e-14 1 
    0.559564 5.545107e-02 5.312900e-14 1 
    0.559742 5.372241e-02 5.144000e-14 1 
    0.559920 5.358729e-02 5.127800e-14 1 
    0.560099 5.363411e-02 5.129000e-14 1 
    0.560277 5.459737e-02 5.217800e-14 1 
    0.560455 5.534405e-02 5.285800e-14 1 
    0.560634 5.497395e-02 5.247100e-14 1 
    0.560812 5.476879e-02 5.224200e-14 1 
    0.560991 5.448485e-02 5.193800e-14 1 
    0.561169 5.226887e-02 4.979400e-14 1 
    0.561347 5.215603e-02 4.965500e-14 1 
    0.561526 5.334964e-02 5.075900e-14 1 
    0.561704 5.233493e-02 4.976200e-14 1 
    0.561882 5.203344e-02 4.944400e-14 1 
    0.562061 5.196235e-02 4.934500e-14 1 
    0.562239 5.128507e-02 4.867100e-14 1 
    0.562417 5.073869e-02 4.812200e-14 1 
    0.562596 5.068554e-02 4.804100e-14 1 
    0.562774 5.252923e-02 4.975700e-14 1 
    0.562953 5.456766e-02 5.165500e-14 1 
    0.563131 5.606832e-02 5.304200e-14 1 
    0.563309 5.689283e-02 5.378800e-14 1 
    0.563488 5.687077e-02 5.373300e-14 1 
    0.563666 5.542932e-02 5.233800e-14 1 
    0.563844 5.553745e-02 5.240700e-14 1 
    0.564023 5.412526e-02 5.104200e-14 1 
    0.564201 5.371590e-02 5.062400e-14 1 
    0.564380 5.421504e-02 5.106200e-14 1 
    0.564558 5.302852e-02 4.991300e-14 1 
    0.564736 5.311193e-02 4.996000e-14 1 
    0.564915 5.432957e-02 5.107300e-14 1 
    0.565093 5.454797e-02 5.124600e-14 1 
    0.565271 5.469311e-02 5.135000e-14 1 
    0.565450 5.536295e-02 5.194600e-14 1 
    0.565628 5.675220e-02 5.321600e-14 1 
    0.565807 5.702183e-02 5.343500e-14 1 
    0.565985 5.476196e-02 5.128500e-14 1 
    0.566163 5.422264e-02 5.074800e-14 1 
    0.566342 5.359941e-02 5.013300e-14 1 
    0.566520 5.399363e-02 5.047000e-14 1 
    0.566698 5.612358e-02 5.242800e-14 1 
    0.566877 5.602301e-02 5.230100e-14 1 
    0.567055 5.461657e-02 5.095600e-14 1 
    0.567234 5.513583e-02 5.140800e-14 1 
    0.567412 5.462312e-02 5.089800e-14 1 
    0.567590 5.489257e-02 5.111700e-14 1 
    0.567769 5.553324e-02 5.168100e-14 1 
    0.567947 5.466274e-02 5.083900e-14 1 
    0.568125 5.261624e-02 4.890500e-14 1 
    0.568304 5.245347e-02 4.872300e-14 1 
    0.568482 5.411619e-02 5.023600e-14 1 
    0.568661 5.518508e-02 5.119600e-14 1 
    0.568839 5.439236e-02 5.042900e-14 1 
    0.569017 5.507288e-02 5.102800e-14 1 
    0.569196 5.387855e-02 4.989000e-14 1 
    0.569374 5.440394e-02 5.034500e-14 1 
    0.569552 5.539275e-02 5.122800e-14 1 
    0.569731 5.372995e-02 4.965900e-14 1 
    0.569909 5.629693e-02 5.199900e-14 1 
    0.570088 5.583397e-02 5.153900e-14 1 
    0.570266 5.646939e-02 5.209300e-14 1 
    0.570444 5.763381e-02 5.313400e-14 1 
    0.570623 5.618737e-02 5.176800e-14 1 
    0.570801 5.594874e-02 5.151600e-14 1 
    0.570979 5.573370e-02 5.128600e-14 1 
    0.571158 5.542938e-02 5.097400e-14 1 
    0.571336 5.720051e-02 5.257000e-14 1 
    0.571515 5.746499e-02 5.278000e-14 1 
    0.571693 5.655517e-02 5.191200e-14 1 
    0.571871 5.763363e-02 5.286900e-14 1 
    0.572050 5.723885e-02 5.247400e-14 1 
    0.572228 5.611314e-02 5.141000e-14 1 
    0.572406 5.524702e-02 5.058500e-14 1 
    0.572585 5.650229e-02 5.170200e-14 1 
    0.572763 5.554450e-02 5.079400e-14 1 
    0.572941 5.453188e-02 4.983700e-14 1 
    0.573120 5.508165e-02 5.030800e-14 1 
    0.573298 5.511368e-02 5.030600e-14 1 
    0.573477 5.414284e-02 4.938900e-14 1 
    0.573655 5.279760e-02 4.813200e-14 1 
    0.573833 5.527257e-02 5.035700e-14 1 
    0.574012 5.753880e-02 5.238900e-14 1 
    0.574190 5.836905e-02 5.311200e-14 1 
    0.574368 5.626311e-02 5.116400e-14 1 
    0.574547 5.742054e-02 5.218400e-14 1 
    0.574725 5.819160e-02 5.285200e-14 1 
    0.574904 5.924474e-02 5.377500e-14 1 
    0.575082 6.004540e-02 5.446800e-14 1 
    0.575260 5.947588e-02 5.391800e-14 1 
    0.575439 5.784290e-02 5.240500e-14 1 
    0.575617 5.843091e-02 5.290500e-14 1 
    0.575795 5.845933e-02 5.289800e-14 1 
    0.575974 5.753583e-02 5.203000e-14 1 
    0.576152 5.871109e-02 5.306000e-14 1 
    0.576331 5.972301e-02 5.394100e-14 1 
    0.576509 5.730928e-02 5.172900e-14 1 
    0.576687 5.842442e-02 5.270300e-14 1 
    0.576866 5.920944e-02 5.337800e-14 1 
    0.577044 5.861998e-02 5.281400e-14 1 
    0.577222 6.023656e-02 5.423700e-14 1 
    0.577401 5.781904e-02 5.202800e-14 1 
    0.577579 5.771793e-02 5.190500e-14 1 
    0.577758 5.822438e-02 5.232800e-14 1 
    0.577936 5.762007e-02 5.175300e-14 1 
    0.578114 5.649250e-02 5.070900e-14 1 
    0.578293 5.784734e-02 5.189300e-14 1 
    0.578471 5.719697e-02 5.127800e-14 1 
    0.578649 5.556470e-02 4.978400e-14 1 
    0.578828 5.574203e-02 4.991200e-14 1 
    0.579006 5.969537e-02 5.341900e-14 1 
    0.579185 5.911281e-02 5.286500e-14 1 
    0.579363 5.844873e-02 5.223900e-14 1 
    0.579541 5.955048e-02 5.319100e-14 1 
    0.579720 5.860929e-02 5.231800e-14 1 
    0.579898 5.852646e-02 5.221200e-14 1 
    0.580076 5.839303e-02 5.206100e-14 1 
    0.580255 5.818217e-02 5.184100e-14 1 
    0.580433 5.910842e-02 5.263400e-14 1 
    0.580612 5.663116e-02 5.039700e-14 1 
    0.580790 5.520305e-02 4.909600e-14 1 
    0.580968 5.635861e-02 5.009300e-14 1 
    0.581147 5.530247e-02 4.912400e-14 1 
    0.581325 5.631975e-02 4.999700e-14 1 
    0.581503 5.730781e-02 5.084300e-14 1 
    0.581682 5.858937e-02 5.194800e-14 1 
    0.581860 5.859025e-02 5.191700e-14 1 
    0.582039 5.865002e-02 5.193800e-14 1 
    0.582217 5.878420e-02 5.202500e-14 1 
    0.582395 5.901914e-02 5.220100e-14 1 
    0.582574 5.951587e-02 5.260800e-14 1 
    0.582752 5.992693e-02 5.293900e-14 1 
    0.582930 6.044946e-02 5.336800e-14 1 
    0.583109 6.104989e-02 5.386500e-14 1 
    0.583287 6.119037e-02 5.395600e-14 1 
    0.583466 6.089545e-02 5.366300e-14 1 
    0.583644 6.043413e-02 5.322400e-14 1 
    0.583822 5.938257e-02 5.226600e-14 1 
    0.584001 5.909611e-02 5.198200e-14 1 
    0.584179 5.937785e-02 5.219800e-14 1 
    0.584357 6.169849e-02 5.420500e-14 1 
    0.584536 6.066683e-02 5.326600e-14 1 
    0.584714 6.011118e-02 5.274600e-14 1 
    0.584892 5.965516e-02 5.231400e-14 1 
    0.585071 6.146483e-02 5.386800e-14 1 
    0.585249 6.124308e-02 5.364100e-14 1 
    0.585428 6.025122e-02 5.274000e-14 1 
    0.585606 6.138640e-02 5.370100e-14 1 
    0.585784 6.004085e-02 5.249200e-14 1 
    0.585963 6.093937e-02 5.324500e-14 1 
    0.586141 5.902726e-02 5.154300e-14 1 
    0.586319 5.889352e-02 5.139500e-14 1 
    0.586498 6.071704e-02 5.295400e-14 1 
    0.586676 6.089157e-02 5.307400e-14 1 
    0.586855 6.269091e-02 5.460900e-14 1 
    0.587033 6.155154e-02 5.358400e-14 1 
    0.587211 5.930503e-02 5.159700e-14 1 
    0.587390 5.971498e-02 5.192200e-14 1 
    0.587568 5.982828e-02 5.198900e-14 1 
    0.587746 5.877868e-02 5.104600e-14 1 
    0.587925 5.809091e-02 5.041800e-14 1 
    0.588103 5.668499e-02 4.916800e-14 1 
    0.588282 6.016064e-02 5.215100e-14 1 
    0.588460 5.852797e-02 5.070500e-14 1 
    0.588638 5.646246e-02 4.888600e-14 1 
    0.588817 5.872612e-02 5.081500e-14 1 
    0.588995 5.914209e-02 5.114400e-14 1 
    0.589173 5.791084e-02 5.004900e-14 1 
    0.589352 5.839178e-02 5.043400e-14 1 
    0.589530 5.845138e-02 5.045500e-14 1 
    0.589709 6.004715e-02 5.180100e-14 1 
    0.589887 5.676381e-02 4.893900e-14 1 
    0.590065 5.723909e-02 4.931900e-14 1 
    0.590244 5.785795e-02 4.982200e-14 1 
    0.590422 5.725493e-02 4.927300e-14 1 
    0.590600 5.799171e-02 4.987700e-14 1 
    0.590779 5.686231e-02 4.887600e-14 1 
    0.590957 5.580581e-02 4.793900e-14 1 
    0.591136 5.604230e-02 4.811300e-14 1 
    0.591314 5.500380e-02 4.719300e-14 1 
    0.591492 5.267767e-02 4.517000e-14 1 
    0.591671 5.069780e-02 4.344600e-14 1 
    0.591849 4.835688e-02 4.141500e-14 1 
    0.592027 4.943863e-02 4.231600e-14 1 
    0.592206 5.162772e-02 4.416300e-14 1 
    0.592384 5.263197e-02 4.499500e-14 1 
    0.592563 5.470619e-02 4.674000e-14 1 
    0.592741 5.547338e-02 4.736700e-14 1 
    0.592919 5.763124e-02 4.918000e-14 1 
    0.593098 5.624726e-02 4.797000e-14 1 
    0.593276 5.887274e-02 5.017900e-14 1 
    0.593454 5.864981e-02 4.995900e-14 1 
    0.593633 5.743418e-02 4.889400e-14 1 
    0.593811 5.839481e-02 4.968200e-14 1 
    0.593990 5.886988e-02 5.005600e-14 1 
    0.594168 5.904403e-02 5.017400e-14 1 
    0.594346 5.768526e-02 4.899000e-14 1 
    0.594525 5.827495e-02 4.946100e-14 1 
    0.594703 5.819549e-02 4.936400e-14 1 
    0.594881 5.800385e-02 4.917200e-14 1 
    0.595060 5.983757e-02 5.069600e-14 1 
    0.595238 5.877502e-02 4.976600e-14 1 
    0.595417 5.921689e-02 5.011000e-14 1 
    0.595595 5.805685e-02 4.909900e-14 1 
    0.595773 5.809156e-02 4.909900e-14 1 
    0.595952 5.728948e-02 4.839200e-14 1 
    0.596130 5.801668e-02 4.897700e-14 1 
    0.596308 6.019550e-02 5.078600e-14 1 
    0.596487 6.032415e-02 5.086400e-14 1 
    0.596665 5.902156e-02 4.973600e-14 1 
    0.596843 5.858301e-02 4.933700e-14 1 
    0.597022 6.208390e-02 5.225400e-14 1 
    0.597200 6.196043e-02 5.211900e-14 1 
    0.597379 5.903444e-02 4.962800e-14 1 
    0.597557 5.919579e-02 4.973400e-14 1 
    0.597735 5.903694e-02 4.957100e-14 1 
    0.597914 6.059526e-02 5.084900e-14 1 
    0.598092 6.029389e-02 5.056600e-14 1 
    0.598270 6.063522e-02 5.082200e-14 1 
    0.598449 5.989554e-02 5.017200e-14 1 
    0.598627 5.760067e-02 4.822100e-14 1 
    0.598806 6.150049e-02 5.145500e-14 1 
    0.598984 6.107065e-02 5.106500e-14 1 
    0.599162 5.982534e-02 4.999400e-14 1 
    0.599341 6.088723e-02 5.085100e-14 1 
    0.599519 6.088027e-02 5.081500e-14 1 
    0.599697 6.141273e-02 5.122900e-14 1 
    0.599876 6.175766e-02 5.148600e-14 1 
    0.600054 6.130464e-02 5.107800e-14 1 
    0.600233 6.133040e-02 5.106900e-14 1 
    0.600411 6.225239e-02 5.180600e-14 1 
    0.600589 5.968862e-02 4.964300e-14 1 
    0.600768 5.891092e-02 4.896700e-14 1 
    0.600946 6.038556e-02 5.016300e-14 1 
    0.601124 5.982874e-02 4.967100e-14 1 
    0.601303 6.003791e-02 4.981500e-14 1 
    0.601481 5.964536e-02 4.946000e-14 1 
    0.601660 5.883501e-02 4.875900e-14 1 
    0.601838 6.059394e-02 5.018700e-14 1 
    0.602016 6.213022e-02 5.142900e-14 1 
    0.602195 6.202574e-02 5.131200e-14 1 
    0.602373 6.261154e-02 5.176600e-14 1 
    0.602551 6.079931e-02 5.023800e-14 1 
    0.602730 6.041282e-02 4.988900e-14 1 
    0.602908 6.071751e-02 5.011100e-14 1 
    0.603087 6.085056e-02 5.019100e-14 1 
    0.603265 6.075668e-02 5.008400e-14 1 
    0.603443 5.972681e-02 4.920600e-14 1 
    0.603622 6.047397e-02 4.979200e-14 1 
    0.603800 6.155961e-02 5.065600e-14 1 
    0.603978 6.132110e-02 5.043000e-14 1 
    0.604157 6.024540e-02 4.951600e-14 1 
    0.604335 5.959673e-02 4.895400e-14 1 
    0.604513 6.006914e-02 4.931300e-14 1 
    0.604692 5.997675e-02 4.920800e-14 1 
    0.604870 6.014622e-02 4.931800e-14 1 
    0.605049 6.129228e-02 5.022800e-14 1 
    0.605227 6.305605e-02 5.164300e-14 1 
    0.605405 6.292088e-02 5.150200e-14 1 
    0.605584 6.254247e-02 5.116200e-14 1 
    0.605762 6.210833e-02 5.077700e-14 1 
    0.605940 6.321083e-02 5.164800e-14 1 
    0.606119 6.354821e-02 5.189300e-14 1 
    0.606297 6.266901e-02 5.114500e-14 1 
    0.606476 6.257237e-02 5.103600e-14 1 
    0.606654 6.323598e-02 5.154700e-14 1 
    0.606832 6.407218e-02 5.219800e-14 1 
    0.607011 6.449196e-02 5.250900e-14 1 
    0.607189 6.449785e-02 5.248300e-14 1 
    0.607367 6.508654e-02 5.293100e-14 1 
    0.607546 6.266417e-02 5.093100e-14 1 
    0.607724 6.210135e-02 5.044400e-14 1 
    0.607903 6.288565e-02 5.105100e-14 1 
    0.608081 6.310367e-02 5.119800e-14 1 
    0.608259 6.312212e-02 5.118300e-14 1 
    0.608438 6.276440e-02 5.086300e-14 1 
    0.608616 6.253690e-02 5.064900e-14 1 
    0.608794 6.325421e-02 5.120000e-14 1 
    0.608973 6.355471e-02 5.141300e-14 1 
    0.609151 6.272729e-02 5.071400e-14 1 
    0.609330 6.374805e-02 5.150900e-14 1 
    0.609508 6.262252e-02 5.057000e-14 1 
    0.609686 6.394152e-02 5.160500e-14 1 
    0.609865 6.484816e-02 5.230600e-14 1 
    0.610043 6.503489e-02 5.242600e-14 1 
    0.610221 6.623836e-02 5.336500e-14 1 
    0.610400 6.547988e-02 5.272300e-14 1 
    0.610578 6.238278e-02 5.020000e-14 1 
    0.610757 6.288440e-02 5.057400e-14 1 
    0.610935 6.328062e-02 5.086300e-14 1 
    0.611113 6.288180e-02 5.051300e-14 1 
    0.611292 6.174155e-02 4.956800e-14 1 
    0.611470 6.355353e-02 5.099300e-14 1 
    0.611648 6.227116e-02 4.993500e-14 1 
    0.611827 6.315235e-02 5.061200e-14 1 
    0.612005 6.396317e-02 5.123200e-14 1 
    0.612184 6.344468e-02 5.078700e-14 1 
    0.612362 6.220038e-02 4.976200e-14 1 
    0.612540 6.245792e-02 4.993900e-14 1 
    0.612719 6.224915e-02 4.974300e-14 1 
    0.612897 6.259461e-02 4.999000e-14 1 
    0.613075 6.313838e-02 5.039500e-14 1 
    0.613254 6.268133e-02 5.000100e-14 1 
    0.613432 6.330851e-02 5.047200e-14 1 
    0.613611 6.414619e-02 5.111000e-14 1 
    0.613789 6.349399e-02 5.056100e-14 1 
    0.613967 6.407992e-02 5.099800e-14 1 
    0.614146 6.490055e-02 5.162100e-14 1 
    0.614324 6.568543e-02 5.221500e-14 1 
    0.614502 6.297196e-02 5.002900e-14 1 
    0.614681 6.228447e-02 4.945400e-14 1 
    0.614859 6.048195e-02 4.799500e-14 1 
    0.615038 6.225848e-02 4.937600e-14 1 
    0.615216 6.256200e-02 4.958800e-14 1 
    0.615394 6.224979e-02 4.931200e-14 1 
    0.615573 6.294534e-02 4.983400e-14 1 
    0.615751 6.317006e-02 4.998300e-14 1 
    0.615929 6.340513e-02 5.014000e-14 1 
    0.616108 6.336228e-02 5.007700e-14 1 
    0.616286 6.079087e-02 4.801700e-14 1 
    0.616465 5.869676e-02 4.633600e-14 1 
    0.616643 5.924527e-02 4.674200e-14 1 
    0.616821 5.932893e-02 4.678100e-14 1 
    0.617000 6.369181e-02 5.019200e-14 1 
    0.617178 6.422500e-02 5.058300e-14 1 
    0.617356 6.437513e-02 5.067200e-14 1 
    0.617535 6.407307e-02 5.040500e-14 1 
    0.617713 6.341047e-02 4.985500e-14 1 
    0.617892 6.558016e-02 5.153100e-14 1 
    0.618070 6.386198e-02 5.015200e-14 1 
    0.618248 6.161557e-02 4.836000e-14 1 
    0.618427 6.132617e-02 4.810500e-14 1 
    0.618605 5.961011e-02 4.673200e-14 1 
    0.618783 5.726922e-02 4.487100e-14 1 
    0.618962 5.693712e-02 4.458500e-14 1 
    0.619140 5.806876e-02 4.544500e-14 1 
    0.619319 5.791057e-02 4.529500e-14 1 
    0.619497 5.884190e-02 4.599700e-14 1 
    0.619675 6.088402e-02 4.756600e-14 1 
    0.619854 6.201423e-02 4.842100e-14 1 
    0.620032 5.994055e-02 4.677500e-14 1 
    0.620210 6.016987e-02 4.692700e-14 1 
    0.620389 6.012763e-02 4.686700e-14 1 
    0.620567 6.189382e-02 4.821600e-14 1 
    0.620745 6.230695e-02 4.851000e-14 1 
    0.620924 6.251253e-02 4.864200e-14 1 
    0.621102 6.385098e-02 4.965500e-14 1 
    0.621281 6.125920e-02 4.761200e-14 1 
    0.621459 5.972500e-02 4.639300e-14 1 
    0.621637 5.956471e-02 4.624200e-14 1 
    0.621816 5.944952e-02 4.612600e-14 1 
    0.621994 6.038498e-02 4.682500e-14 1 
    0.622172 5.933697e-02 4.598600e-14 1 
    0.622351 6.056664e-02 4.691200e-14 1 
    0.622529 6.205329e-02 4.803600e-14 1 
    0.622708 6.264348e-02 4.846500e-14 1 
    0.622886 6.188780e-02 4.785300e-14 1 
    0.623064 6.159320e-02 4.759800e-14 1 
    0.623243 6.311759e-02 4.874800e-14 1 
    0.623421 6.374310e-02 4.920300e-14 1 
    0.623599 6.234974e-02 4.810000e-14 1 
    0.623778 6.118581e-02 4.717500e-14 1 
    0.623956 6.092875e-02 4.695000e-14 1 
    0.624135 6.017424e-02 4.634200e-14 1 
    0.624313 5.931210e-02 4.565200e-14 1 
    0.624491 5.896764e-02 4.536100e-14 1 
    0.624670 5.852929e-02 4.499800e-14 1 
    0.624848 5.804337e-02 4.459900e-14 1 
    0.625026 5.911820e-02 4.539900e-14 1 
    0.625205 5.966802e-02 4.579500e-14 1 
    0.625383 6.044772e-02 4.636700e-14 1 
    0.625562 6.013404e-02 4.610000e-14 1 
    0.625740 5.813090e-02 4.453900e-14 1 
    0.625918 5.934061e-02 4.544000e-14 1 
    0.626097 6.211853e-02 4.754000e-14 1 
    0.626275 6.227283e-02 4.763100e-14 1 
    0.626453 5.961999e-02 4.557600e-14 1 
    0.626632 5.835303e-02 4.458200e-14 1 
    0.626810 5.898993e-02 4.504300e-14 1 
    0.626989 5.895811e-02 4.499300e-14 1 
    0.627167 5.838978e-02 4.453400e-14 1 
    0.627345 5.975973e-02 4.555300e-14 1 
    0.627524 5.993692e-02 4.566200e-14 1 
    0.627702 5.945082e-02 4.526600e-14 1 
    0.627880 5.951083e-02 4.528600e-14 1 
    0.628059 5.780126e-02 4.396000e-14 1 
    0.628237 5.811952e-02 4.417700e-14 1 
    0.628415 5.831568e-02 4.430100e-14 1 
    0.628594 5.550660e-02 4.214300e-14 1 
    0.628772 5.659365e-02 4.294400e-14 1 
    0.628951 5.683288e-02 4.310100e-14 1 
    0.629129 5.652599e-02 4.284400e-14 1 
    0.629307 5.664246e-02 4.290800e-14 1 
    0.629486 5.773004e-02 4.370700e-14 1 
    0.629664 5.843803e-02 4.421800e-14 1 
    0.629842 6.096897e-02 4.610700e-14 1 
    0.630021 6.196287e-02 4.683200e-14 1 
    0.630199 6.745474e-02 5.095400e-14 1 
    0.630378 6.333783e-02 4.781700e-14 1 
    0.630556 6.070305e-02 4.580200e-14 1 
    0.630734 6.063787e-02 4.572700e-14 1 
    0.630913 6.068290e-02 4.573500e-14 1 
    0.631091 6.068530e-02 4.571100e-14 1 
    0.631269 6.069694e-02 4.569400e-14 1 
    0.631448 6.070745e-02 4.567600e-14 1 
    0.631626 6.071774e-02 4.565800e-14 1 
    0.631805 6.072954e-02 4.564100e-14 1 
    0.631983 6.075045e-02 4.563100e-14 1 
    0.632161 6.068078e-02 4.555300e-14 1 
    0.632340 6.105635e-02 4.580900e-14 1 
    0.632518 6.335652e-02 4.750800e-14 1 
    0.632696 6.178696e-02 4.630500e-14 1 
    0.632875 5.925185e-02 4.438000e-14 1 
    0.633053 5.848100e-02 4.377800e-14 1 
    0.633232 5.988544e-02 4.480400e-14 1 
    0.633410 6.067071e-02 4.536600e-14 1 
    0.633588 6.180875e-02 4.619100e-14 1 
    0.633767 6.429515e-02 4.802200e-14 1 
    0.633945 6.238883e-02 4.657200e-14 1 
    0.634123 6.123227e-02 4.568300e-14 1 
    0.634302 6.009202e-02 4.480700e-14 1 
    0.634480 6.083157e-02 4.533300e-14 1 
    0.634659 6.211859e-02 4.626600e-14 1 
    0.634837 6.113381e-02 4.550700e-14 1 
    0.635015 6.262380e-02 4.659000e-14 1 
    0.635194 6.185889e-02 4.599500e-14 1 
    0.635372 6.269155e-02 4.658800e-14 1 
    0.635550 6.512733e-02 4.837100e-14 1 
    0.635729 6.462920e-02 4.797400e-14 1 
    0.635907 6.283221e-02 4.661400e-14 1 
    0.636086 6.324656e-02 4.689500e-14 1 
    0.636264 6.299455e-02 4.668200e-14 1 
    0.636442 6.334438e-02 4.691500e-14 1 
    0.636621 6.383800e-02 4.725400e-14 1 
    0.636799 6.390344e-02 4.727600e-14 1 
    0.636977 6.501032e-02 4.806800e-14 1 
    0.637156 6.386279e-02 4.719300e-14 1 
    0.637334 6.343406e-02 4.685000e-14 1 
    0.637512 6.322158e-02 4.666700e-14 1 
    0.637691 6.296837e-02 4.645400e-14 1 
    0.637869 6.271736e-02 4.624300e-14 1 
    0.638048 6.246759e-02 4.603300e-14 1 
    0.638226 6.221595e-02 4.582200e-14 1 
    0.638404 6.196673e-02 4.561300e-14 1 
    0.638583 6.171875e-02 4.540500e-14 1 
    0.638761 6.141451e-02 4.515600e-14 1 
    0.638940 6.185854e-02 4.545700e-14 1 
    0.639118 6.401571e-02 4.701600e-14 1 
    0.639296 6.214955e-02 4.562000e-14 1 
    0.639475 6.264645e-02 4.595900e-14 1 
    0.639653 6.471755e-02 4.745200e-14 1 
    0.639831 6.883787e-02 5.044500e-14 1 
    0.640010 6.772128e-02 4.959900e-14 1 
    0.640188 6.647889e-02 4.866200e-14 1 
    0.640367 6.636298e-02 4.855000e-14 1 
    0.640545 6.793303e-02 4.967100e-14 1 
    0.640723 6.757394e-02 4.938100e-14 1 
    0.640902 6.764731e-02 4.940700e-14 1 
    0.641080 6.620260e-02 4.832500e-14 1 
    0.641258 6.502904e-02 4.744200e-14 1 
    0.641437 6.625991e-02 4.831300e-14 1 
    0.641615 6.664934e-02 4.857000e-14 1 
    0.641794 6.672498e-02 4.859800e-14 1 
    0.641972 6.564101e-02 4.778200e-14 1 
    0.642150 6.418193e-02 4.669400e-14 1 
    0.642329 6.547473e-02 4.760800e-14 1 
    0.642507 6.631739e-02 4.819400e-14 1 
    0.642685 6.385798e-02 4.638100e-14 1 
    0.642864 6.406025e-02 4.650200e-14 1 
    0.643042 6.587930e-02 4.779600e-14 1 
    0.643220 6.794996e-02 4.927100e-14 1 
    0.643399 6.687147e-02 4.846200e-14 1 
    0.643577 6.659921e-02 4.823800e-14 1 
    0.643756 6.764469e-02 4.896800e-14 1 
    0.643934 6.714720e-02 4.858100e-14 1 
    0.644112 6.614990e-02 4.783300e-14 1 
    0.644291 6.575356e-02 4.752000e-14 1 
    0.644469 6.755925e-02 4.879800e-14 1 
    0.644647 6.706742e-02 4.841600e-14 1 
    0.644826 6.550521e-02 4.726200e-14 1 
    0.645004 6.438899e-02 4.643100e-14 1 
    0.645183 6.647412e-02 4.790800e-14 1 
    0.645361 6.632894e-02 4.777700e-14 1 
    0.645539 6.642110e-02 4.781700e-14 1 
    0.645718 6.589366e-02 4.741100e-14 1 
    0.645896 6.694096e-02 4.813800e-14 1 
    0.646074 6.751633e-02 4.852500e-14 1 
    0.646253 6.596948e-02 4.738700e-14 1 
    0.646431 6.562556e-02 4.711400e-14 1 
    0.646610 6.550165e-02 4.699900e-14 1 
    0.646788 6.655148e-02 4.772600e-14 1 
    0.646966 6.547055e-02 4.692500e-14 1 
    0.647145 6.664032e-02 4.773700e-14 1 
    0.647323 6.627890e-02 4.745200e-14 1 
    0.647501 6.620076e-02 4.737000e-14 1 
    0.647680 6.649326e-02 4.755300e-14 1 
    0.647858 6.566379e-02 4.693400e-14 1 
    0.648037 6.552371e-02 4.680800e-14 1 
    0.648215 6.544625e-02 4.672700e-14 1 
    0.648393 6.601473e-02 4.710700e-14 1 
    0.648572 6.859048e-02 4.891800e-14 1 
    0.648750 6.720978e-02 4.790700e-14 1 
    0.648928 6.566329e-02 4.677900e-14 1 
    0.649107 6.508016e-02 4.633800e-14 1 
    0.649285 6.432893e-02 4.577800e-14 1 
    0.649464 6.646498e-02 4.727200e-14 1 
    0.649642 6.677996e-02 4.747000e-14 1 
    0.649820 6.655758e-02 4.728600e-14 1 
    0.649999 6.699562e-02 4.757100e-14 1 
    0.650177 6.672373e-02 4.735200e-14 1 
    0.650355 6.650507e-02 4.717100e-14 1 
    0.650534 6.692256e-02 4.744100e-14 1 
    0.650712 6.721325e-02 4.762100e-14 1 
    0.650891 6.562197e-02 4.646800e-14 1 
    0.651069 6.586275e-02 4.661300e-14 1 
    0.651247 6.530499e-02 4.619300e-14 1 
    0.651426 6.697890e-02 4.735100e-14 1 
    0.651604 6.833033e-02 4.828000e-14 1 
    0.651782 6.737924e-02 4.758200e-14 1 
    0.651961 6.602067e-02 4.659700e-14 1 
    0.652139 6.444065e-02 4.545700e-14 1 
    0.652317 6.344182e-02 4.472800e-14 1 
    0.652496 6.318571e-02 4.452300e-14 1 
    0.652674 6.238953e-02 4.393800e-14 1 
    0.652853 6.321082e-02 4.449200e-14 1 
    0.653031 6.373145e-02 4.483400e-14 1 
    0.653209 6.624949e-02 4.658000e-14 1 
    0.653388 6.789955e-02 4.771400e-14 1 
    0.653566 6.719616e-02 4.719400e-14 1 
    0.653744 6.690653e-02 4.696500e-14 1 
    0.653923 6.747199e-02 4.733600e-14 1 
    0.654101 6.816476e-02 4.779600e-14 1 
    0.654280 6.810932e-02 4.773100e-14 1 
    0.654458 6.679291e-02 4.678300e-14 1 
    0.654636 6.864201e-02 4.805200e-14 1 
    0.654815 6.843229e-02 4.787900e-14 1 
    0.654993 6.983234e-02 4.883200e-14 1 
    0.655171 6.946680e-02 4.855000e-14 1 
    0.655350 6.794574e-02 4.746100e-14 1 
    0.655528 6.809868e-02 4.754200e-14 1 
    0.655707 6.907746e-02 4.819900e-14 1 
    0.655885 6.764948e-02 4.717700e-14 1 
    0.656063 6.904776e-02 4.812600e-14 1 
    0.656242 6.868924e-02 4.785000e-14 1 
    0.656420 6.895201e-02 4.800700e-14 1 
    0.656598 6.963753e-02 4.845800e-14 1 
    0.656777 7.084592e-02 4.927200e-14 1 
    0.656955 6.990892e-02 4.859400e-14 1 
    0.657134 6.672561e-02 4.635600e-14 1 
    0.657312 6.833734e-02 4.745000e-14 1 
    0.657490 6.699535e-02 4.649300e-14 1 
    0.657669 6.496867e-02 4.506200e-14 1 
    0.657847 6.670316e-02 4.624000e-14 1 
    0.658025 6.789824e-02 4.704300e-14 1 
    0.658204 6.989918e-02 4.840300e-14 1 
    0.658382 6.380921e-02 4.416200e-14 1 
    0.658560 6.411551e-02 4.435000e-14 1 
    0.658739 6.270825e-02 4.335300e-14 1 
    0.658917 5.933823e-02 4.100100e-14 1 
    0.659096 5.737510e-02 3.962300e-14 1 
    0.659274 5.608044e-02 3.870800e-14 1 
    0.659452 5.788067e-02 3.992900e-14 1 
    0.659631 6.183247e-02 4.263200e-14 1 
    0.659809 6.457806e-02 4.450100e-14 1 
    0.659988 6.542765e-02 4.506200e-14 1 
    0.660166 6.631570e-02 4.564900e-14 1 
    0.660344 6.714507e-02 4.619500e-14 1 
    0.660523 6.556430e-02 4.508300e-14 1 
    0.660701 6.638539e-02 4.562300e-14 1 
    0.660879 6.828177e-02 4.690100e-14 1 
    0.661058 6.994730e-02 4.801900e-14 1 
    0.661236 7.042221e-02 4.831900e-14 1 
    0.661415 6.793031e-02 4.658400e-14 1 
    0.661593 6.634153e-02 4.547000e-14 1 
    0.661771 6.785309e-02 4.648100e-14 1 
    0.661950 6.796284e-02 4.653100e-14 1 
    0.662128 6.580586e-02 4.503000e-14 1 
    0.662306 6.610005e-02 4.520700e-14 1 
    0.662485 6.553891e-02 4.479900e-14 1 
    0.662663 6.752529e-02 4.613200e-14 1 
    0.662842 6.784150e-02 4.632300e-14 1 
    0.663020 6.705884e-02 4.576400e-14 1 
    0.663198 7.012822e-02 4.783300e-14 1 
    0.663377 6.831632e-02 4.657200e-14 1 
    0.663555 6.842930e-02 4.662400e-14 1 
    0.663733 6.681252e-02 4.549800e-14 1 
    0.663912 6.562173e-02 4.466300e-14 1 
    0.664090 6.794873e-02 4.622200e-14 1 
    0.664269 7.025193e-02 4.776300e-14 1 
    0.664447 6.956850e-02 4.727300e-14 1 
    0.664625 6.965730e-02 4.730800e-14 1 
    0.664804 7.040492e-02 4.779000e-14 1 
    0.664982 7.054433e-02 4.785900e-14 1 
    0.665160 6.994352e-02 4.742600e-14 1 
    0.665339 6.857346e-02 4.647200e-14 1 
    0.665517 6.983112e-02 4.729900e-14 1 
    0.665695 6.903536e-02 4.673500e-14 1 
    0.665874 6.934740e-02 4.692100e-14 1 
    0.666052 6.983253e-02 4.722400e-14 1 
    0.666231 6.800584e-02 4.596400e-14 1 
    0.666409 6.711845e-02 4.534000e-14 1 
    0.666587 6.792006e-02 4.585700e-14 1 
    0.666766 6.881458e-02 4.643600e-14 1 
    0.666944 7.005826e-02 4.725000e-14 1 
    0.667122 6.986126e-02 4.709200e-14 1 
    0.667301 6.892356e-02 4.643500e-14 1 
    0.667479 6.953805e-02 4.682400e-14 1 
    0.667658 7.050551e-02 4.745000e-14 1 
    0.667836 7.004358e-02 4.711400e-14 1 
    0.668014 6.822754e-02 4.586800e-14 1 
    0.668193 6.972559e-02 4.685000e-14 1 
    0.668371 6.930262e-02 4.654100e-14 1 
    0.668549 6.736249e-02 4.521400e-14 1 
    0.668728 6.912475e-02 4.637200e-14 1 
    0.668906 6.935395e-02 4.650100e-14 1 
    0.669085 6.717807e-02 4.501800e-14 1 
    0.669263 6.783194e-02 4.543200e-14 1 
    0.669441 6.706285e-02 4.489300e-14 1 
    0.669620 6.727359e-02 4.501000e-14 1 
    0.669798 6.960933e-02 4.654800e-14 1 
    0.669976 6.999645e-02 4.678200e-14 1 
    0.670155 6.973145e-02 4.658000e-14 1 
    0.670333 7.005759e-02 4.677300e-14 1 
    0.670512 7.072893e-02 4.719600e-14 1 
    0.670690 6.855334e-02 4.572000e-14 1 
    0.670868 6.789664e-02 4.525800e-14 1 
    0.671047 6.900310e-02 4.597100e-14 1 
    0.671225 6.829031e-02 4.547200e-14 1 
    0.671403 6.845876e-02 4.556000e-14 1 
    0.671582 7.029484e-02 4.675700e-14 1 
    0.671760 6.849699e-02 4.553700e-14 1 
    0.671939 6.776142e-02 4.502400e-14 1 
    0.672117 6.805181e-02 4.519300e-14 1 
    0.672295 6.823551e-02 4.529100e-14 1 
    0.672474 6.981091e-02 4.631200e-14 1 
    0.672652 6.905003e-02 4.578300e-14 1 
    0.672830 6.925106e-02 4.589200e-14 1 
    0.673009 6.882289e-02 4.558400e-14 1 
    0.673187 7.040163e-02 4.660500e-14 1 
    0.673366 7.120083e-02 4.710900e-14 1 
    0.673544 7.043246e-02 4.657600e-14 1 
    0.673722 7.013230e-02 4.635300e-14 1 
    0.673901 7.018773e-02 4.636500e-14 1 
    0.674079 6.942207e-02 4.583500e-14 1 
    0.674257 6.908746e-02 4.559000e-14 1 
    0.674436 6.973670e-02 4.599400e-14 1 
    0.674614 6.930780e-02 4.568700e-14 1 
    0.674793 6.816372e-02 4.490900e-14 1 
    0.674971 6.814501e-02 4.487300e-14 1 
    0.675149 6.931749e-02 4.562100e-14 1 
    0.675328 6.909885e-02 4.545300e-14 1 
    0.675506 6.958551e-02 4.574900e-14 1 
    0.675684 6.934673e-02 4.556800e-14 1 
    0.675863 6.982351e-02 4.585700e-14 1 
    0.676041 7.130757e-02 4.680700e-14 1 
    0.676219 6.926453e-02 4.544200e-14 1 
    0.676398 6.961232e-02 4.564600e-14 1 
    0.676576 7.004263e-02 4.590400e-14 1 
    0.676755 6.847975e-02 4.485600e-14 1 
    0.676933 7.033958e-02 4.605000e-14 1 
    0.677111 7.015497e-02 4.590500e-14 1 
    0.677290 7.054681e-02 4.613700e-14 1 
    0.677468 6.890869e-02 4.504200e-14 1 
    0.677646 6.753515e-02 4.412100e-14 1 
    0.677825 6.747741e-02 4.406000e-14 1 
    0.678003 6.795108e-02 4.434600e-14 1 
    0.678182 6.931924e-02 4.521500e-14 1 
    0.678360 7.006583e-02 4.567800e-14 1 
    0.678538 6.873978e-02 4.479000e-14 1 
    0.678717 6.978643e-02 4.544800e-14 1 
    0.678895 6.885208e-02 4.481600e-14 1 
    0.679073 6.961525e-02 4.528900e-14 1 
    0.679252 7.084079e-02 4.606200e-14 1 
    0.679430 6.935917e-02 4.507500e-14 1 
    0.679609 6.867829e-02 4.460900e-14 1 
    0.679787 6.986339e-02 4.535500e-14 1 
    0.679965 7.077844e-02 4.592500e-14 1 
    0.680144 6.982885e-02 4.528500e-14 1 
    0.680322 6.899064e-02 4.471800e-14 1 
    0.680500 7.022303e-02 4.549300e-14 1 
    0.680679 7.341368e-02 4.753500e-14 1 
    0.680857 7.304722e-02 4.727300e-14 1 
    0.681036 7.115928e-02 4.602700e-14 1 
    0.681214 7.017867e-02 4.536900e-14 1 
    0.681392 7.042272e-02 4.550300e-14 1 
    0.681571 6.816026e-02 4.401800e-14 1 
    0.681749 7.091794e-02 4.577500e-14 1 
    0.681927 7.038765e-02 4.540900e-14 1 
    0.682106 6.778498e-02 4.370700e-14 1 
    0.682284 6.980033e-02 4.498300e-14 1 
    0.682462 6.994855e-02 4.505500e-14 1 
    0.682641 6.889325e-02 4.435200e-14 1 
    0.682819 6.998911e-02 4.503400e-14 1 
    0.682998 6.975369e-02 4.485900e-14 1 
    0.683176 6.901062e-02 4.435800e-14 1 
    0.683354 7.006302e-02 4.501100e-14 1 
    0.683533 7.028662e-02 4.513100e-14 1 
    0.683711 6.907667e-02 4.433100e-14 1 
    0.683890 6.937476e-02 4.449900e-14 1 
    0.684068 6.939217e-02 4.448700e-14 1 
    0.684246 6.983873e-02 4.475000e-14 1 
    0.684425 6.996896e-02 4.481000e-14 1 
    0.684603 6.941950e-02 4.443500e-14 1 
    0.684781 6.982919e-02 4.467400e-14 1 
    0.684960 7.099640e-02 4.539700e-14 1 
    0.685138 7.208479e-02 4.606900e-14 1 
    0.685317 6.979451e-02 4.458200e-14 1 
    0.685495 6.955823e-02 4.440800e-14 1 
    0.685673 7.044690e-02 4.495200e-14 1 
    0.685852 7.038490e-02 4.488900e-14 1 
    0.686030 6.941270e-02 4.424600e-14 1 
    0.686208 7.082998e-02 4.512600e-14 1 
    0.686387 7.266508e-02 4.627100e-14 1 
    0.686565 7.150862e-02 4.551100e-14 1 
    0.686743 6.892668e-02 4.384500e-14 1 
    0.686922 7.037033e-02 4.474000e-14 1 
    0.687100 7.030451e-02 4.467500e-14 1 
    0.687279 6.992548e-02 4.441100e-14 1 
    0.687457 7.245228e-02 4.599200e-14 1 
    0.687635 7.142119e-02 4.531400e-14 1 
    0.687814 7.004701e-02 4.441900e-14 1 
    0.687992 6.514324e-02 4.128800e-14 1 
    0.688170 5.811749e-02 3.681600e-14 1 
    0.688349 5.187587e-02 3.284500e-14 1 
    0.688527 4.536213e-02 2.870600e-14 1 
    0.688706 4.504263e-02 2.848900e-14 1 
    0.688884 4.645479e-02 2.936700e-14 1 
    0.689062 5.035481e-02 3.181600e-14 1 
    0.689241 5.495257e-02 3.470300e-14 1 
    0.689419 5.830804e-02 3.680300e-14 1 
    0.689597 6.087122e-02 3.840100e-14 1 
    0.689776 6.398119e-02 4.034200e-14 1 
    0.689954 6.465528e-02 4.074600e-14 1 
    0.690133 6.330603e-02 3.987500e-14 1 
    0.690311 6.123083e-02 3.854800e-14 1 
    0.690489 5.782010e-02 3.638200e-14 1 
    0.690668 5.982655e-02 3.762500e-14 1 
    0.690846 6.130510e-02 3.853500e-14 1 
    0.691024 5.994077e-02 3.765800e-14 1 
    0.691203 6.048461e-02 3.798000e-14 1 
    0.691381 6.207408e-02 3.895800e-14 1 
    0.691560 6.139363e-02 3.851100e-14 1 
    0.691738 6.235352e-02 3.909300e-14 1 
    0.691916 6.474266e-02 4.057000e-14 1 
    0.692095 6.522163e-02 4.084900e-14 1 
    0.692273 6.612420e-02 4.139300e-14 1 
    0.692451 6.837184e-02 4.277800e-14 1 
    0.692630 6.751009e-02 4.221700e-14 1 
    0.692808 6.670643e-02 4.169300e-14 1 
    0.692987 6.799591e-02 4.247700e-14 1 
    0.693165 6.777938e-02 4.232000e-14 1 
    0.693343 6.926280e-02 4.322400e-14 1 
    0.693522 7.153348e-02 4.461800e-14 1 
    0.693700 7.248933e-02 4.519100e-14 1 
    0.693878 6.904873e-02 4.302400e-14 1 
    0.694057 7.037055e-02 4.382500e-14 1 
    0.694235 6.636620e-02 4.131000e-14 1 
    0.694414 6.939014e-02 4.317000e-14 1 
    0.694592 7.134750e-02 4.436500e-14 1 
    0.694770 7.079196e-02 4.399700e-14 1 
    0.694949 7.020704e-02 4.361100e-14 1 
    0.695127 7.244158e-02 4.497600e-14 1 
    0.695305 7.338434e-02 4.553800e-14 1 
    0.695484 7.371880e-02 4.572200e-14 1 
    0.695662 3.082089e-02 1.910600e-14 1 
    0.695841 2.148695e-02 1.331300e-14 1 
    0.696626 7.240817e-02 4.476200e-14 0 
    0.698233 7.377294e-02 4.539600e-14 0 
    0.699842 7.413292e-02 4.540800e-14 0 
    0.701455 6.952184e-02 4.238800e-14 0 
    0.703072 7.502806e-02 4.553500e-14 0 
    0.704693 7.453188e-02 4.502600e-14 0 
    0.706318 7.335774e-02 4.411300e-14 0 
    0.707946 7.880506e-02 4.717100e-14 0 
    0.709578 7.441576e-02 4.433900e-14 0 
    0.711214 7.529716e-02 4.465800e-14 0 
    0.712853 7.143196e-02 4.217100e-14 0 
    0.714496 7.294599e-02 4.286700e-14 0 
    0.716143 7.313224e-02 4.277900e-14 0 
    0.717794 7.231400e-02 4.210600e-14 0 
    0.719449 7.384697e-02 4.280100e-14 0 
    0.721108 7.386727e-02 4.261600e-14 0 
    0.722770 7.039815e-02 4.042800e-14 0 
    0.724436 7.139656e-02 4.081300e-14 0 
    0.726106 7.443608e-02 4.235500e-14 0 
    0.727780 7.601557e-02 4.305500e-14 0 
    0.729457 7.816482e-02 4.406900e-14 0 
    0.731139 7.675808e-02 4.307700e-14 0 
    0.732825 7.400128e-02 4.133900e-14 0 
    0.734514 7.949692e-02 4.420500e-14 0 
    0.736207 8.099659e-02 4.483200e-14 0 
    0.737904 8.367185e-02 4.610000e-14 0 
    0.739605 7.883041e-02 4.323300e-14 0 
    0.741310 8.410352e-02 4.591300e-14 0 
    0.743019 8.220982e-02 4.467300e-14 0 
    0.744732 8.376142e-02 4.530700e-14 0 
    0.746449 8.378408e-02 4.511100e-14 0 
    0.748170 8.399921e-02 4.501900e-14 0 
    0.749894 8.657427e-02 4.618600e-14 0 
    0.751623 8.600226e-02 4.567000e-14 0 
    0.753356 8.310376e-02 4.392800e-14 0 
    0.755092 8.506276e-02 4.475700e-14 0 
    0.756833 8.930084e-02 4.677100e-14 0 
    0.758578 8.870991e-02 4.624800e-14 0 
    0.760326 8.914427e-02 4.626100e-14 0 
    0.762079 8.978618e-02 4.638000e-14 0 
    0.763836 8.756543e-02 4.502500e-14 0 
    0.765597 8.942328e-02 4.576900e-14 0 
    0.767361 8.700939e-02 4.432900e-14 0 
    0.769130 8.885442e-02 4.506100e-14 0 
    0.770904 7.443916e-02 3.757700e-14 0 
    0.772681 8.648065e-02 4.345500e-14 0 
    0.774462 8.242133e-02 4.122500e-14 0 
    0.776247 8.692924e-02 4.328000e-14 0 
    0.778037 8.836575e-02 4.379300e-14 0 
    0.779830 8.697544e-02 4.290600e-14 0 
    0.781628 8.620396e-02 4.233000e-14 0 
    0.783430 8.803196e-02 4.302900e-14 0 
    0.785236 8.745175e-02 4.254900e-14 0 
    0.787046 8.951341e-02 4.335200e-14 0 
    0.788860 9.120223e-02 4.396700e-14 0 
    0.790679 9.143785e-02 4.387800e-14 0 
    0.792501 9.000068e-02 4.299000e-14 0 
    0.794328 8.981882e-02 4.270600e-14 0 
    0.796159 8.659498e-02 4.098400e-14 0 
    0.797995 8.721983e-02 4.109000e-14 0 
    0.799834 8.989548e-02 4.215600e-14 0 
    0.801678 9.243990e-02 4.315000e-14 0 
    0.803526 9.204227e-02 4.276700e-14 0 
    0.805378 9.313515e-02 4.307600e-14 0 
    0.807235 9.273323e-02 4.269300e-14 0 
    0.809096 9.190876e-02 4.211900e-14 0 
    0.810961 9.538668e-02 4.351200e-14 0 
    0.812831 9.345520e-02 4.243500e-14 0 
    0.814704 9.654579e-02 4.363700e-14 0 
    0.816582 9.791604e-02 4.405300e-14 0 
    0.818465 9.637858e-02 4.316200e-14 0 
    0.820352 9.662833e-02 4.307500e-14 0 
    0.822243 9.251978e-02 4.105400e-14 0 
    0.824138 9.044046e-02 3.994700e-14 0 
    0.826038 9.965330e-02 4.381400e-14 0 
    0.827942 9.696456e-02 4.243600e-14 0 
    0.829851 9.948047e-02 4.333700e-14 0 
    0.831764 9.635365e-02 4.178200e-14 0 
    0.833681 9.772269e-02 4.218100e-14 0 
    0.835603 9.707758e-02 4.171000e-14 0 
    0.837529 9.755600e-02 4.172300e-14 0 
    0.839460 9.871341e-02 4.202400e-14 0 
    0.841395 1.024492e-01 4.341400e-14 0 
    0.843335 9.303388e-02 3.924300e-14 0 
    0.845279 1.025088e-01 4.304100e-14 0 
    0.847227 9.725145e-02 4.064600e-14 0 
    0.849180 9.705614e-02 4.037800e-14 0 
    0.851138 9.708648e-02 4.020500e-14 0 
    0.853100 1.014573e-01 4.182200e-14 0 
    0.855067 9.849425e-02 4.041400e-14 0 
    0.857038 9.966622e-02 4.070700e-14 0 
    0.859014 7.255574e-02 2.949800e-14 0 
    0.860994 1.015793e-01 4.110800e-14 0 
    0.862979 9.952608e-02 4.009200e-14 0 
    0.864968 1.018758e-01 4.085000e-14 0 
    0.866962 1.016721e-01 4.058100e-14 0 
    0.868960 1.026446e-01 4.078100e-14 0 
    0.870964 6.172551e-02 2.441100e-14 0 
    0.872971 1.001371e-01 3.942000e-14 0 
    0.874984 1.015615e-01 3.979700e-14 0 
    0.877001 1.066272e-01 4.159000e-14 0 
    0.879023 1.035136e-01 4.019000e-14 0 
    0.881049 1.045036e-01 4.038800e-14 0 
    0.883080 1.072163e-01 4.124600e-14 0 
    0.885116 1.040892e-01 3.985900e-14 0 
    0.887156 1.015158e-01 3.869500e-14 0 
    0.889201 1.075639e-01 4.081200e-14 0 
    0.891251 1.004163e-01 3.792500e-14 0 
    0.893305 1.039786e-01 3.909000e-14 0 
    0.895365 1.057013e-01 3.955500e-14 0 
    0.897429 1.040415e-01 3.875500e-14 0 
    0.899498 1.012396e-01 3.753800e-14 0 
    0.901571 1.019723e-01 3.763600e-14 0 
    0.903650 9.367300e-02 3.441400e-14 0 
    0.905733 1.018030e-01 3.722900e-14 0 
    0.907820 1.086158e-01 3.953800e-14 0 
    0.909913 1.148245e-01 4.160600e-14 0 
    0.912011 1.028421e-01 3.709300e-14 0 
    0.914113 1.069822e-01 3.840900e-14 0 
    0.916220 1.136180e-01 4.060400e-14 0 
    0.918333 1.072976e-01 3.816900e-14 0 
    0.920450 9.699069e-02 3.434400e-14 0 
    0.922571 1.004285e-01 3.539800e-14 0 
    0.924698 1.081431e-01 3.794200e-14 0 
    0.926830 1.062056e-01 3.709100e-14 0 
    0.928966 1.082145e-01 3.761900e-14 0 
    0.931108 1.102602e-01 3.815400e-14 0 
    0.933254 1.131265e-01 3.896600e-14 0 
    0.935406 1.150021e-01 3.943000e-14 0 
    0.937562 1.155710e-01 3.944300e-14 0 
    0.939723 1.158747e-01 3.936500e-14 0 
    0.941890 1.148484e-01 3.883700e-14 0 
    0.944061 1.167539e-01 3.930000e-14 0 
    0.946237 1.173315e-01 3.931300e-14 0 
    0.948418 1.165598e-01 3.887500e-14 0 
    0.950605 1.190408e-01 3.952000e-14 0 
    0.952796 1.193542e-01 3.944200e-14 0 
    0.954993 1.183001e-01 3.891400e-14 0 
    0.957194 1.191575e-01 3.901600e-14 0 
    0.959401 1.172930e-01 3.822900e-14 0 
    0.961612 1.195141e-01 3.877400e-14 0 
    0.963829 1.214964e-01 3.923600e-14 0 
    0.966051 1.206978e-01 3.879900e-14 0 
    0.968278 1.215768e-01 3.890200e-14 0 
    0.970510 1.202259e-01 3.829300e-14 0 
    0.972747 1.219384e-01 3.866000e-14 0 
    0.974990 1.211388e-01 3.823000e-14 0 
    0.977237 1.206219e-01 3.789200e-14 0 
    0.979490 1.209420e-01 3.781800e-14 0 
    0.981748 1.218216e-01 3.791800e-14 0 
    0.984011 1.207442e-01 3.741000e-14 0 
    0.986279 1.236004e-01 3.811900e-14 0 
    0.988553 1.236433e-01 3.795700e-14 0 
    0.990832 1.233992e-01 3.770800e-14 0 
    0.993116 1.237255e-01 3.763400e-14 0 
    0.995405 1.229159e-01 3.721600e-14 0 
    0.997700 1.243825e-01 3.748700e-14 0 
    1.000000 1.250000e-01 3.750000e-14 0 
    1.002305 1.256204e-01 3.751300e-14 0 
    1.006931 1.257079e-01 3.719500e-14 0 
    1.011580 1.252171e-01 3.671000e-14 0 
    1.016249 1.273396e-01 3.699000e-14 0 
    1.020939 1.271348e-01 3.659200e-14 0 
    1.028017 1.287417e-01 3.654600e-14 0 
    1.032761 1.300251e-01 3.657200e-14 0 
    1.035142 1.297717e-01 3.633300e-14 0 
    1.054386 1.307431e-01 3.528100e-14 0 
    1.073990 1.304442e-01 3.392700e-14 0 
    1.093956 1.301414e-01 3.262400e-14 0 
    1.114294 1.295456e-01 3.130000e-14 0 
    1.135010 1.307442e-01 3.044700e-14 0 
    1.156113 1.337889e-01 3.002900e-14 0 
    1.174898 1.340999e-01 2.914400e-14 0 
    1.193988 1.334796e-01 2.808900e-14 0 
    1.216186 1.350278e-01 2.738700e-14 0 
    1.235947 1.365898e-01 2.682500e-14 0 
    1.256030 1.369051e-01 2.603400e-14 0 
    1.276439 1.378548e-01 2.538300e-14 0 
    1.294196 1.381717e-01 2.474800e-14 0 
    1.315225 1.394521e-01 2.418500e-14 0 
    1.336595 1.397747e-01 2.347200e-14 0 
    1.355189 1.410644e-01 2.304300e-14 0 
    1.377209 1.427017e-01 2.257100e-14 0 
    1.396368 1.417146e-01 2.180400e-14 0 
    1.415794 1.404200e-01 2.101600e-14 0 
    1.435490 1.417165e-01 2.063200e-14 0 
    1.455459 1.456867e-01 2.063200e-14 0 
    1.475707 1.450211e-01 1.997800e-14 0 
    1.496236 1.494273e-01 2.002400e-14 0 
    1.517051 1.532608e-01 1.997800e-14 0 
    1.538154 1.590054e-01 2.016200e-14 0 
    1.555965 1.608530e-01 1.993200e-14 0 
    1.577611 1.627132e-01 1.961300e-14 0 
    1.595879 1.612228e-01 1.899100e-14 0 
    1.618080 1.657397e-01 1.899100e-14 0 
    1.636817 1.680465e-01 1.881700e-14 0 
    1.655770 1.684332e-01 1.843100e-14 0 
    1.678804 1.699860e-01 1.809400e-14 0 
    1.698244 1.699945e-01 1.768300e-14 0 
    1.717909 1.692126e-01 1.720100e-14 0 
    1.737800 1.661173e-01 1.650200e-14 0 
    1.757923 1.649805e-01 1.601600e-14 0 
    1.778279 1.623407e-01 1.540100e-14 0 
    1.798871 1.601142e-01 1.484400e-14 0 
    1.819702 1.568239e-01 1.420800e-14 0 
    1.836538 1.550284e-01 1.378900e-14 0 
    1.857805 1.532554e-01 1.332100e-14 0 
    1.879318 1.501148e-01 1.275100e-14 0 
    1.896705 1.487322e-01 1.240300e-14 0 
    1.918669 1.487364e-01 1.212100e-14 0 
    1.936423 1.460271e-01 1.168300e-14 0 
    1.958844 1.433529e-01 1.120800e-14 0 
    1.976970 1.413932e-01 1.085300e-14 0 
    1.999862 1.401006e-01 1.050900e-14 0 
    2.018366 1.397721e-01 1.029300e-14 0 
    2.037042 1.372211e-01 9.920700e-15 0 
    2.060630 1.378556e-01 9.739700e-15 0 
    2.079696 1.362764e-01 9.452400e-15 0 
    2.098940 1.350272e-01 9.194800e-15 0 
    2.118362 1.347165e-01 9.006200e-15 0 
    2.137962 1.334819e-01 8.760800e-15 0 
    2.157745 1.328690e-01 8.561400e-15 0 
    2.177709 1.304433e-01 8.251700e-15 0 
    2.197860 1.301441e-01 8.082500e-15 0 
    2.218197 1.286537e-01 7.844100e-15 0 
    2.238721 1.271813e-01 7.612800e-15 0 
    2.259436 1.263058e-01 7.422400e-15 0 
    2.280341 1.251473e-01 7.220100e-15 0 
    2.301442 1.143985e-01 6.479500e-15 0 
    2.322738 1.154572e-01 6.420100e-15 0 
    2.338837 1.026658e-01 5.630500e-15 0 
    2.360479 9.895068e-02 5.327700e-15 0 
    2.382319 1.019575e-01 5.389400e-15 0 
    2.398834 9.515291e-02 4.960700e-15 0 
    2.421028 9.384649e-02 4.803300e-15 0 
    2.437811 9.428050e-02 4.759300e-15 0 
    2.460366 8.983046e-02 4.451900e-15 0 
    2.483133 9.045243e-02 4.400900e-15 0 
    2.500344 7.823819e-02 3.754400e-15 0 
    2.523480 7.859962e-02 3.702900e-15 0 
    2.540974 8.024630e-02 3.728600e-15 0 
    2.558586 8.061627e-02 3.694400e-15 0 
    2.582261 8.325754e-02 3.745800e-15 0 
    2.600159 8.268491e-02 3.669000e-15 0 
    2.624220 8.364150e-02 3.643700e-15 0 
    2.642408 8.249378e-02 3.544400e-15 0 
    2.660726 8.268341e-02 3.503800e-15 0 
    2.679168 8.211564e-02 3.432000e-15 0 
    2.703959 8.230437e-02 3.377100e-15 0 
    2.722701 8.192711e-02 3.315500e-15 0 
    2.741575 8.117532e-02 3.240000e-15 0 
    2.760578 8.080325e-02 3.180900e-15 0 
    2.779712 8.005993e-02 3.108400e-15 0 
    2.798981 7.987586e-02 3.058700e-15 0 
    2.824881 7.969313e-02 2.996000e-15 0 
    2.844461 7.932645e-02 2.941300e-15 0 
    2.864177 7.860056e-02 2.874400e-15 0 
    2.884032 7.787807e-02 2.808900e-15 0 
    2.904021 7.752206e-02 2.757700e-15 0 
    2.924153 7.698739e-02 2.701100e-15 0 
    2.944421 7.628106e-02 2.639600e-15 0 
    2.964832 7.575712e-02 2.585500e-15 0 
    2.985382 7.540871e-02 2.538300e-15 0 
    3.006077 7.471678e-02 2.480500e-15 0 
    3.019952 7.403401e-02 2.435300e-15 0 
    3.040884 7.352270e-02 2.385300e-15 0 
    3.061964 7.335488e-02 2.347200e-15 0 
    3.083187 7.301591e-02 2.304300e-15 0 
    3.104560 7.268237e-02 2.262300e-15 0 
    3.126079 7.234811e-02 2.221000e-15 0 
    3.140510 7.185052e-02 2.185500e-15 0 
    3.162278 7.135335e-02 2.140600e-15 0 
    3.184196 7.102781e-02 2.101600e-15 0 
    3.206270 7.086462e-02 2.068000e-15 0 
    3.221068 7.005388e-02 2.025600e-15 0 
    3.243397 6.973109e-02 1.988600e-15 0 
    3.265878 6.957050e-02 1.956800e-15 0 
    3.280952 6.877533e-02 1.916700e-15 0 
    3.303696 6.845880e-02 1.881700e-15 0 
    3.326594 6.814215e-02 1.847300e-15 0 
    3.341952 6.736181e-02 1.809400e-15 0 
    3.365115 6.705317e-02 1.776400e-15 0 
    3.388443 6.659296e-02 1.740000e-15 0 
    3.404082 6.567951e-02 1.700400e-15 0 
    3.427677 6.522636e-02 1.665500e-15 0 
    3.443501 6.462842e-02 1.635100e-15 0 
    3.467368 6.433315e-02 1.605300e-15 0 
    3.483372 6.359366e-02 1.572300e-15 0 
    3.507520 6.315794e-02 1.540100e-15 0 
    3.523708 6.257924e-02 1.512000e-15 0 
    3.548136 6.214903e-02 1.481000e-15 0 
    3.564512 6.143652e-02 1.450600e-15 0 
    3.589218 6.101145e-02 1.420800e-15 0 
    3.605788 6.045360e-02 1.394900e-15 0 
    3.622430 5.989755e-02 1.369400e-15 0 
    3.647538 5.948900e-02 1.341400e-15 0 
    3.664377 5.880419e-02 1.313800e-15 0 
    3.689775 5.840141e-02 1.286900e-15 0 
    3.706805 5.759977e-02 1.257600e-15 0 
    3.723918 5.694022e-02 1.231800e-15 0 
    3.749729 5.680897e-02 1.212100e-15 0 
    3.767040 5.590146e-02 1.181800e-15 0 
    3.784427 5.564531e-02 1.165600e-15 0 
    3.810657 5.526249e-02 1.141700e-15 0 
    3.828249 5.475291e-02 1.120800e-15 0 
    3.845918 5.425370e-02 1.100400e-15 0 
    3.863669 5.375551e-02 1.080300e-15 0 
    3.890453 5.338335e-02 1.058100e-15 0 
    3.908409 5.277231e-02 1.036400e-15 0 
    3.926448 5.241264e-02 1.019900e-15 0 
    3.944575 5.181111e-02 9.989500e-16 0 
    3.962781 5.121792e-02 9.784600e-16 0 
    3.990248 5.098249e-02 9.605999e-16 0 
    4.008669 5.028339e-02 9.387400e-16 0 
    4.027171 4.993717e-02 9.237300e-16 0 
    4.045758 4.959333e-02 9.089599e-16 0 
    4.064435 4.902532e-02 8.903100e-16 0 
    4.083195 4.857583e-02 8.740600e-16 0 
    4.111496 4.846435e-02 8.600900e-16 0 
    4.130477 4.802001e-02 8.443900e-16 0 
    4.149541 4.768946e-02 8.308900e-16 0 
    4.168693 4.725194e-02 8.157200e-16 0 
    4.187938 4.692688e-02 8.026800e-16 0 
    4.207267 4.649665e-02 7.880300e-16 0 
    4.226686 4.607053e-02 7.736500e-16 0 
    4.246193 4.585849e-02 7.630300e-16 0 
    4.265796 4.543856e-02 7.491100e-16 0 
    4.285485 4.512558e-02 7.371300e-16 0 
    4.305264 4.359379e-02 7.055800e-16 0 
    4.325140 4.211345e-02 6.753700e-16 0 
    4.345102 4.240554e-02 6.738200e-16 0 
    4.365157 4.106011e-02 6.464600e-16 0 
    4.385309 4.040355e-02 6.302900e-16 0 
    4.405549 3.493207e-02 5.399400e-16 0 
    4.425883 3.475903e-02 5.323400e-16 0 
    4.446310 3.457782e-02 5.247100e-16 0 
    4.466837 3.438770e-02 5.170400e-16 0 
    4.487454 3.418834e-02 5.093300e-16 0 
    4.508165 3.402095e-02 5.021900e-16 0 
    4.528977 3.384624e-02 4.950300e-16 0 
    4.549880 3.366325e-02 4.878400e-16 0 
    4.570880 3.347119e-02 4.806100e-16 0 
    4.591982 3.329808e-02 4.737400e-16 0 
    4.613176 3.312945e-02 4.670200e-16 0 
    4.634468 3.295271e-02 4.602700e-16 0 
    4.645151 3.286171e-02 4.568900e-16 0 
    4.666595 3.267220e-02 4.500900e-16 0 
    4.688134 3.250928e-02 4.437400e-16 0 
    4.709772 3.234276e-02 4.374200e-16 0 
    4.731515 3.216896e-02 4.310800e-16 0 
    4.753353 3.198684e-02 4.247100e-16 0 
    4.775292 3.181760e-02 4.185900e-16 0 
    4.786299 3.173918e-02 4.156400e-16 0 
    4.808395 3.157512e-02 4.097000e-16 0 
    4.830588 3.140290e-02 4.037300e-16 0 
    4.852884 3.122323e-02 3.977400e-16 0 
    4.875287 3.106454e-02 3.920900e-16 0 
    4.886525 3.098664e-02 3.893100e-16 0 
    4.909079 3.082510e-02 3.837300e-16 0 
    4.931736 3.065547e-02 3.781200e-16 0 
    4.954504 3.047769e-02 3.724800e-16 0 
    4.965924 3.040381e-02 3.698700e-16 0 
    4.988845 3.025123e-02 3.646400e-16 0 
    5.011870 3.009237e-02 3.594000e-16 0 
    5.035008 2.992468e-02 3.541200e-16 0 
    5.046614 2.983868e-02 3.514800e-16 0 
    5.069906 2.968377e-02 3.464500e-16 0 
    5.093306 2.953383e-02 3.415400e-16 0 
    5.105052 2.945564e-02 3.390700e-16 0 
    5.116820 2.937603e-02 3.366000e-16 0 
    5.128614 2.929505e-02 3.341300e-16 0 
    5.140436 2.921182e-02 3.316500e-16 0 
    5.152285 2.912632e-02 3.291600e-16 0 
    5.164162 2.905185e-02 3.268100e-16 0 
    5.176071 2.898059e-02 3.245100e-16 0 
    5.188002 2.890800e-02 3.222100e-16 0 
    5.199961 2.883232e-02 3.198900e-16 0 
    5.211947 2.875622e-02 3.175800e-16 0 
    5.223961 2.867700e-02 3.152500e-16 0 
    5.236003 2.859735e-02 3.129300e-16 0 
    5.248072 2.851450e-02 3.105900e-16 0 
    5.260175 2.843312e-02 3.082800e-16 0 
    5.272300 2.836421e-02 3.061200e-16 0 
    5.284453 2.829406e-02 3.039600e-16 0 
    5.296634 2.822172e-02 3.017900e-16 0 
    5.308843 2.814811e-02 2.996200e-16 0 
    5.321080 2.807228e-02 2.974400e-16 0 
    5.333352 2.799522e-02 2.952600e-16 0 
    5.345646 2.791583e-02 2.930700e-16 0 
    5.357968 2.783415e-02 2.908700e-16 0 
    5.370318 2.776073e-02 2.887700e-16 0 
    5.382697 2.769280e-02 2.867400e-16 0 
    5.395105 2.762366e-02 2.847100e-16 0 
    5.407541 2.755232e-02 2.826700e-16 0 
    5.420011 2.747880e-02 2.806200e-16 0 
    5.432505 2.740495e-02 2.785800e-16 0 
    5.445027 2.732784e-02 2.765200e-16 0 
    5.457579 2.725045e-02 2.744700e-16 0 
    5.470159 2.716976e-02 2.724000e-16 0 
    5.482768 2.710377e-02 2.704900e-16 0 
    5.495406 2.703659e-02 2.685800e-16 0 
    5.508079 2.696828e-02 2.666700e-16 0 
    5.520776 2.689769e-02 2.647500e-16 0 
    5.533502 2.682587e-02 2.628300e-16 0 
    5.546257 2.675281e-02 2.609100e-16 0 
    5.559041 2.667748e-02 2.589800e-16 0 
    5.571855 2.659984e-02 2.570400e-16 0 
    5.584705 2.652618e-02 2.551500e-16 0 
    5.597578 2.646166e-02 2.533600e-16 0 
    5.610481 2.639598e-02 2.515700e-16 0 
    5.623413 2.632807e-02 2.497700e-16 0 
    5.636376 2.625898e-02 2.479700e-16 0 
    5.649368 2.618762e-02 2.461600e-16 0 
    5.662390 2.611504e-02 2.443500e-16 0 
    5.675448 2.604129e-02 2.425400e-16 0 
    5.688531 2.596517e-02 2.407200e-16 0 
    5.701643 2.589862e-02 2.390000e-16 0 
    5.714786 2.583527e-02 2.373200e-16 0 
    5.727959 2.576969e-02 2.356300e-16 0 
    5.741162 2.570294e-02 2.339400e-16 0 
    5.754402 2.563509e-02 2.322500e-16 0 
    5.767667 2.556491e-02 2.305500e-16 0 
    5.780962 2.549353e-02 2.288500e-16 0 
    5.794287 2.541982e-02 2.271400e-16 0 
    5.807643 2.534713e-02 2.254500e-16 0 
    5.821030 2.528566e-02 2.238700e-16 0 
    5.834448 2.522309e-02 2.222900e-16 0 
    5.847904 2.515831e-02 2.207000e-16 0 
    5.861383 2.509348e-02 2.191200e-16 0 
    5.874894 2.502523e-02 2.175200e-16 0 
    5.888436 2.495696e-02 2.159300e-16 0 
    5.902009 2.488520e-02 2.143200e-16 0 
    5.915614 2.481343e-02 2.127200e-16 0 
    5.929250 2.474749e-02 2.111800e-16 0 
    5.942924 2.468752e-02 2.097000e-16 0 
    5.956623 2.462525e-02 2.082100e-16 0 
    5.970353 2.456186e-02 2.067200e-16 0 
    5.984115 2.449618e-02 2.052200e-16 0 
    5.997909 2.443056e-02 2.037300e-16 0 
    6.011735 2.436262e-02 2.022300e-16 0 
    6.025599 2.429237e-02 2.007200e-16 0 
    6.039488 2.422089e-02 1.992100e-16 0 
    6.053410 2.416168e-02 1.978100e-16 0 
    6.067363 2.410263e-02 1.964200e-16 0 
    6.081349 2.404129e-02 1.950200e-16 0 
    6.095367 2.397887e-02 1.936200e-16 0 
    6.109417 2.391411e-02 1.922100e-16 0 
    6.123506 2.384830e-02 1.908000e-16 0 
    6.137621 2.378132e-02 1.893900e-16 0 
    6.151769 2.371321e-02 1.879800e-16 0 
    6.165950 2.364778e-02 1.866000e-16 0 
    6.180162 2.359014e-02 1.852900e-16 0 
    6.194408 2.353146e-02 1.839800e-16 0 
    6.208693 2.347051e-02 1.826600e-16 0 
    6.223005 2.340845e-02 1.813400e-16 0 
    6.237350 2.334532e-02 1.800200e-16 0 
    6.251727 2.328109e-02 1.787000e-16 0 
    6.266138 2.321447e-02 1.773700e-16 0 
    6.280582 2.314674e-02 1.760400e-16 0 
    6.295059 2.308846e-02 1.747900e-16 0 
    6.309576 2.303185e-02 1.735600e-16 0 
    6.324120 2.297284e-02 1.723200e-16 0 
    6.338698 2.291414e-02 1.710900e-16 0 
    6.353309 2.285305e-02 1.698500e-16 0 
    6.367954 2.279092e-02 1.686100e-16 0 
    6.382632 2.272637e-02 1.673600e-16 0 
    6.397352 2.266079e-02 1.661100e-16 0 
    6.412098 2.259681e-02 1.648800e-16 0 
    6.426879 2.254139e-02 1.637200e-16 0 
    6.441693 2.248498e-02 1.625600e-16 0 
    6.456541 2.242756e-02 1.614000e-16 0 
    6.471424 2.236914e-02 1.602400e-16 0 
    6.486341 2.230971e-02 1.590800e-16 0 
    6.501300 2.224789e-02 1.579100e-16 0 
    6.516286 2.218497e-02 1.567400e-16 0 
    6.531306 2.212099e-02 1.555700e-16 0 
    6.546361 2.206167e-02 1.544400e-16 0 
    6.561452 2.200852e-02 1.533600e-16 0 
    6.576576 2.195294e-02 1.522700e-16 0 
    6.591735 2.189639e-02 1.511800e-16 0 
    6.606937 2.183745e-02 1.500800e-16 0 
    6.622166 2.177890e-02 1.489900e-16 0 
    6.637431 2.171789e-02 1.478900e-16 0 
    6.652731 2.165585e-02 1.467900e-16 0 
    6.668066 2.159276e-02 1.456900e-16 0 
    6.683436 2.153906e-02 1.446600e-16 0 
    6.698849 2.148595e-02 1.436400e-16 0 
    6.714291 2.143184e-02 1.426200e-16 0 
    6.729768 2.137678e-02 1.416000e-16 0 
    6.745280 2.131922e-02 1.405700e-16 0 
    6.760829 2.126069e-02 1.395400e-16 0 
    6.776412 2.120115e-02 1.385100e-16 0 
    6.792033 2.113909e-02 1.374700e-16 0 
    6.807696 2.108067e-02 1.364600e-16 0 
    6.823389 2.102899e-02 1.355000e-16 0 
    6.839117 2.097793e-02 1.345500e-16 0 
    6.854882 2.092282e-02 1.335800e-16 0 
    6.870683 2.086832e-02 1.326200e-16 0 
    6.886520 2.081130e-02 1.316500e-16 0 
    6.902402 2.075495e-02 1.306900e-16 0 
    6.918312 2.069438e-02 1.297100e-16 0 
    6.934259 2.063443e-02 1.287400e-16 0 
    6.950243 2.058152e-02 1.278200e-16 0 
    6.966264 2.053093e-02 1.269200e-16 0 
    6.982322 2.047943e-02 1.260200e-16 0 
    6.998416 2.042702e-02 1.251200e-16 0 
    7.014556 2.037209e-02 1.242100e-16 0 
    7.030725 2.031618e-02 1.233000e-16 0 
    7.046931 2.025932e-02 1.223900e-16 0 
    7.063175 2.020149e-02 1.214800e-16 0 
    7.079456 2.014438e-02 1.205800e-16 0 
    7.095775 2.009469e-02 1.197300e-16 0 
    7.112139 2.004585e-02 1.188900e-16 0 
    7.128533 1.999439e-02 1.180400e-16 0 
    7.144965 1.994204e-02 1.171900e-16 0 
    7.161434 1.988877e-02 1.163400e-16 0 
    7.177942 1.983286e-02 1.154800e-16 0 
    7.194488 1.977775e-02 1.146300e-16 0 
    7.211072 1.971997e-02 1.137700e-16 0 
    7.227702 1.966650e-02 1.129400e-16 0 
    7.244362 1.961906e-02 1.121500e-16 0 
    7.261061 1.957078e-02 1.113600e-16 0 
    7.277798 1.951986e-02 1.105600e-16 0 
    7.294573 1.946805e-02 1.097600e-16 0 
    7.311388 1.941536e-02 1.089600e-16 0 
    7.328241 1.935997e-02 1.081500e-16 0 
    7.345141 1.930550e-02 1.073500e-16 0 
    7.362073 1.924827e-02 1.065400e-16 0 
    7.379043 1.920280e-02 1.058000e-16 0 
    7.396052 1.915467e-02 1.050500e-16 0 
    7.413101 1.910570e-02 1.043000e-16 0 
    7.430188 1.905586e-02 1.035500e-16 0 
    7.447323 1.900519e-02 1.028000e-16 0 
    7.464490 1.895361e-02 1.020500e-16 0 
    7.481696 1.889929e-02 1.012900e-16 0 
    7.498942 1.884406e-02 1.005300e-16 0 
    7.516227 1.879300e-02 9.979700e-17 0 
    7.533553 1.874731e-02 9.909700e-17 0 
    7.550919 1.870042e-02 9.839500e-17 0 
    7.568332 1.865255e-02 9.769200e-17 0 
    7.585778 1.860341e-02 9.698700e-17 0 
    7.603263 1.855322e-02 9.628100e-17 0 
    7.620790 1.850160e-02 9.557200e-17 0 
    7.638356 1.844911e-02 9.486300e-17 0 
    7.655963 1.839515e-02 9.415100e-17 0 
    7.673619 1.834839e-02 9.348000e-17 0 
    7.691307 1.830332e-02 9.282200e-17 0 
    7.709036 1.825706e-02 9.216200e-17 0 
    7.726806 1.820978e-02 9.150100e-17 0 
    7.744617 1.816127e-02 9.083800e-17 0 
    7.762469 1.811172e-02 9.017400e-17 0 
    7.780362 1.806093e-02 8.950800e-17 0 
    7.798305 1.800912e-02 8.884100e-17 0 
    7.816280 1.795743e-02 8.817900e-17 0 
    7.834298 1.791408e-02 8.756200e-17 0 
    7.852356 1.786954e-02 8.694300e-17 0 
    7.870456 1.782400e-02 8.632300e-17 0 
    7.888598 1.777724e-02 8.570100e-17 0 
    7.906782 1.772946e-02 8.507800e-17 0 
    7.925016 1.768048e-02 8.445300e-17 0 
    7.943284 1.763064e-02 8.382800e-17 0 
    7.961594 1.757932e-02 8.320000e-17 0 
    7.979946 1.753268e-02 8.259800e-17 0 
    7.998341 1.748992e-02 8.201800e-17 0 
    8.016777 1.744596e-02 8.143600e-17 0 
    8.035265 1.740104e-02 8.085300e-17 0 
    8.053787 1.735487e-02 8.026800e-17 0 
    8.072352 1.730769e-02 7.968200e-17 0 
    8.090959 1.725948e-02 7.909500e-17 0 
    8.109609 1.721024e-02 7.850700e-17 0 
    8.128302 1.715974e-02 7.791700e-17 0 
    8.147038 1.711792e-02 7.737000e-17 0 
    8.165827 1.707560e-02 7.682400e-17 0 
    8.184650 1.703227e-02 7.627700e-17 0 
    8.203516 1.698773e-02 7.572800e-17 0 
    8.222426 1.694241e-02 7.517900e-17 0 
    8.241379 1.689586e-02 7.462800e-17 0 
    8.260376 1.684829e-02 7.407600e-17 0 
    8.279426 1.679973e-02 7.352300e-17 0 
    8.298510 1.675331e-02 7.298300e-17 0 
    8.317639 1.671257e-02 7.247100e-17 0 
    8.336812 1.667085e-02 7.195800e-17 0 
    8.356029 1.662817e-02 7.144400e-17 0 
    8.375290 1.658426e-02 7.092800e-17 0 
    8.394596 1.653960e-02 7.041200e-17 0 
    8.413955 1.649350e-02 6.989300e-17 0 
    8.433350 1.644658e-02 6.937400e-17 0 
    8.452789 1.639865e-02 6.885400e-17 0 
    8.472273 1.635685e-02 6.836300e-17 0 
    8.491803 1.631673e-02 6.788200e-17 0 
    8.511377 1.627565e-02 6.740000e-17 0 
    8.531005 1.623338e-02 6.691600e-17 0 
    8.550670 1.619011e-02 6.643100e-17 0 
    8.570380 1.614609e-02 6.594600e-17 0 
    8.590135 1.610082e-02 6.545900e-17 0 
    8.609937 1.605455e-02 6.497100e-17 0 
    8.629783 1.600850e-02 6.448700e-17 0 
    8.649675 1.596991e-02 6.403600e-17 0 
    8.669623 1.593016e-02 6.358300e-17 0 
    8.689607 1.588942e-02 6.312900e-17 0 
    8.709637 1.584795e-02 6.267500e-17 0 
    8.729713 1.580526e-02 6.221900e-17 0 
    8.749836 1.576159e-02 6.176200e-17 0 
    8.770005 1.571717e-02 6.130500e-17 0 
    8.790220 1.567149e-02 6.084600e-17 0 
    8.810492 1.562975e-02 6.040500e-17 0 
    8.830801 1.559167e-02 5.998100e-17 0 
    8.851157 1.555239e-02 5.955500e-17 0 
    8.871559 1.551241e-02 5.912900e-17 0 
    8.892009 1.547146e-02 5.870200e-17 0 
    8.912505 1.542928e-02 5.827300e-17 0 
    8.933059 1.538642e-02 5.784400e-17 0 
    8.953651 1.534226e-02 5.741300e-17 0 
    8.974289 1.529736e-02 5.698200e-17 0 
    8.994976 1.526009e-02 5.658200e-17 0 
    9.015710 1.522214e-02 5.618200e-17 0 
    9.036491 1.518352e-02 5.578200e-17 0 
    9.057321 1.514422e-02 5.538200e-17 0 
    9.078209 1.510344e-02 5.497900e-17 0 
    9.099135 1.506221e-02 5.457700e-17 0 
    9.120109 1.501972e-02 5.417300e-17 0 
    9.141132 1.497623e-02 5.376800e-17 0 
    9.162202 1.493510e-02 5.337400e-17 0 
    9.183322 1.489862e-02 5.299900e-17 0 
    9.204501 1.486151e-02 5.262400e-17 0 
    9.225717 1.482343e-02 5.224800e-17 0 
    9.246984 1.478440e-02 5.187100e-17 0 
    9.268298 1.474439e-02 5.149300e-17 0 
    9.289662 1.470342e-02 5.111400e-17 0 
    9.311076 1.466176e-02 5.073500e-17 0 
    9.332538 1.461882e-02 5.035400e-17 0 
    9.354061 1.458162e-02 4.999500e-17 0 
    9.375623 1.454578e-02 4.964300e-17 0 
    9.397234 1.450901e-02 4.929000e-17 0 
    9.418895 1.447158e-02 4.893700e-17 0 
    9.440607 1.443291e-02 4.858200e-17 0 
    9.462368 1.439357e-02 4.822700e-17 0 
    9.484190 1.435330e-02 4.787100e-17 0 
    9.506052 1.431201e-02 4.751400e-17 0 
    9.527963 1.427094e-02 4.716000e-17 0 
    9.549927 1.423649e-02 4.683000e-17 0 
    9.571940 1.420111e-02 4.649900e-17 0 
    9.594004 1.416479e-02 4.616700e-17 0 
    9.616119 1.412784e-02 4.583500e-17 0 
    9.638295 1.408996e-02 4.550200e-17 0 
    9.660512 1.405109e-02 4.516800e-17 0 
    9.682780 1.401124e-02 4.483300e-17 0 
    9.705099 1.397042e-02 4.449700e-17 0 
    9.727470 1.393334e-02 4.417500e-17 0 
    9.749893 1.389942e-02 4.386500e-17 0 
    9.772367 1.386457e-02 4.355400e-17 0 
    9.794904 1.382881e-02 4.324200e-17 0 
    9.817482 1.379208e-02 4.292900e-17 0 
    9.840112 1.375471e-02 4.261600e-17 0 
    9.862794 1.371638e-02 4.230200e-17 0 
    9.885528 1.367708e-02 4.198700e-17 0 
    9.908315 1.363712e-02 4.167200e-17 0 
    9.931166 1.360377e-02 4.137900e-17 0 
    9.954058 1.357011e-02 4.108700e-17 0 
    9.977002 1.353586e-02 4.079500e-17 0 
   10.000000 1.350033e-02 4.050100e-17 0 
   10.023051 1.346419e-02 4.020700e-17 0 
   10.046155 1.342743e-02 3.991300e-17 0 
   10.069312 1.338970e-02 3.961800e-17 0 
   10.092534 1.335103e-02 3.932200e-17 0 
   10.115797 1.331407e-02 3.903300e-17 0 
   10.139115 1.328163e-02 3.875900e-17 0 
   10.162486 1.324861e-02 3.848500e-17 0 
   10.185912 1.321465e-02 3.821000e-17 0 
   10.209391 1.317975e-02 3.793400e-17 0 
   10.232935 1.314427e-02 3.765800e-17 0 
   10.256523 1.310780e-02 3.738100e-17 0 
   10.280165 1.307037e-02 3.710300e-17 0 
   10.303862 1.303231e-02 3.682500e-17 0 
   10.327612 1.299896e-02 3.656200e-17 0 
   10.351419 1.296716e-02 3.630500e-17 0 
   10.375279 1.293443e-02 3.604700e-17 0 
   10.399206 1.290080e-02 3.578800e-17 0 
   10.423177 1.286655e-02 3.552900e-17 0 
   10.447203 1.283134e-02 3.526900e-17 0 
   10.471285 1.279553e-02 3.500900e-17 0 
   10.495422 1.275876e-02 3.474800e-17 0 
   10.519615 1.272211e-02 3.448900e-17 0 
   10.543863 1.269152e-02 3.424800e-17 0 
   10.568179 1.266003e-02 3.400600e-17 0 
   10.592540 1.262758e-02 3.376300e-17 0 
   10.616956 1.259455e-02 3.352000e-17 0 
   10.641429 1.256058e-02 3.327600e-17 0 
   10.665959 1.252603e-02 3.303200e-17 0 
   10.690544 1.249051e-02 3.278700e-17 0 
   10.715198 1.245442e-02 3.254200e-17 0 
   10.739898 1.242116e-02 3.230600e-17 0 
   10.764654 1.239081e-02 3.207900e-17 0 
   10.789467 1.235991e-02 3.185200e-17 0 
   10.814338 1.232769e-02 3.162300e-17 0 
   10.839266 1.229530e-02 3.139500e-17 0 
   10.864251 1.226195e-02 3.116600e-17 0 
   10.889305 1.222766e-02 3.093600e-17 0 
   10.914406 1.219277e-02 3.070600e-17 0 
   10.939565 1.215689e-02 3.047500e-17 0 
   10.964781 1.212724e-02 3.026100e-17 0 
   10.990055 1.209746e-02 3.004800e-17 0 
   11.015388 1.206674e-02 2.983400e-17 0 
   11.040792 1.203510e-02 2.961900e-17 0 
   11.066241 1.200288e-02 2.940400e-17 0 
   11.091750 1.197011e-02 2.918900e-17 0 
   11.117317 1.193637e-02 2.897300e-17 0 
   11.142944 1.190206e-02 2.875700e-17 0 
   11.168629 1.186885e-02 2.854500e-17 0 
   11.194373 1.184008e-02 2.834500e-17 0 
   11.220190 1.181041e-02 2.814400e-17 0 
   11.246053 1.178018e-02 2.794300e-17 0 
   11.271976 1.174942e-02 2.774200e-17 0 
   11.297959 1.171771e-02 2.754000e-17 0 
   11.324001 1.168502e-02 2.733700e-17 0 
   11.350104 1.165178e-02 2.713400e-17 0 
   11.376279 1.161801e-02 2.693100e-17 0 
   11.402502 1.158842e-02 2.673900e-17 0 
   11.428786 1.155962e-02 2.655000e-17 0 
   11.455130 1.153074e-02 2.636200e-17 0 
   11.481534 1.150047e-02 2.617200e-17 0 
   11.508001 1.147012e-02 2.598300e-17 0 
   11.534527 1.143879e-02 2.579300e-17 0 
   11.561128 1.140652e-02 2.560200e-17 0 
   11.587777 1.137412e-02 2.541200e-17 0 
   11.614488 1.134119e-02 2.522200e-17 0 
   11.641260 1.131402e-02 2.504600e-17 0 
   11.668094 1.128592e-02 2.486900e-17 0 
   11.694990 1.125686e-02 2.469100e-17 0 
   11.721948 1.122774e-02 2.451400e-17 0 
   11.748980 1.119723e-02 2.433500e-17 0 
   11.776062 1.116662e-02 2.415700e-17 0 
   11.803207 1.113504e-02 2.397800e-17 0 
   11.830414 1.110246e-02 2.379800e-17 0 
   11.857684 1.107309e-02 2.362600e-17 0 
   11.885017 1.104603e-02 2.346000e-17 0 
   11.912426 1.101852e-02 2.329400e-17 0 
   11.939885 1.099002e-02 2.312700e-17 0 
   11.967407 1.096101e-02 2.296000e-17 0 
   11.994993 1.093103e-02 2.279200e-17 0 
   12.022642 1.090054e-02 2.262400e-17 0 
   12.050355 1.086953e-02 2.245600e-17 0 
   12.078132 1.083752e-02 2.228700e-17 0 
   12.105987 1.081087e-02 2.213000e-17 0 
   12.133891 1.078420e-02 2.197400e-17 0 
   12.161861 1.075706e-02 2.181800e-17 0 
   12.189895 1.072895e-02 2.166100e-17 0 
   12.217994 1.070035e-02 2.150400e-17 0 
   12.246157 1.067075e-02 2.134600e-17 0 
   12.274398 1.064067e-02 2.118800e-17 0 
   12.302692 1.061007e-02 2.103000e-17 0 
   12.331051 1.058099e-02 2.087600e-17 0 
   12.359474 1.055497e-02 2.072900e-17 0 
   12.387964 1.052900e-02 2.058300e-17 0 
   12.416520 1.050154e-02 2.043500e-17 0 
   12.445140 1.047412e-02 2.028800e-17 0 
   12.473841 1.044573e-02 2.014000e-17 0 
   12.502594 1.041682e-02 1.999200e-17 0 
   12.531413 1.038743e-02 1.984400e-17 0 
   12.560299 1.035702e-02 1.969500e-17 0 
   12.589252 1.033033e-02 1.955400e-17 0 
   12.618270 1.030530e-02 1.941700e-17 0 
   12.647370 1.027930e-02 1.927900e-17 0 
   12.676523 1.025229e-02 1.914000e-17 0 
   12.705744 1.022535e-02 1.900200e-17 0 
   12.735031 1.019740e-02 1.886300e-17 0 
   12.764387 1.016843e-02 1.872300e-17 0 
   12.793809 1.013953e-02 1.858400e-17 0 
   12.823300 1.011068e-02 1.844600e-17 0 
   12.852873 1.008579e-02 1.831600e-17 0 
   12.882499 1.006098e-02 1.818700e-17 0 
   12.912195 1.003517e-02 1.805700e-17 0 
   12.941958 1.000890e-02 1.792700e-17 0 
   12.971790 9.982179e-03 1.779700e-17 0 
   13.001691 9.954436e-03 1.766600e-17 0 
   13.031661 9.926223e-03 1.753500e-17 0 
   13.061714 9.897560e-03 1.740400e-17 0 
   13.091823 9.871257e-03 1.727800e-17 0 
   13.122000 9.847368e-03 1.715700e-17 0 
   13.152247 9.822472e-03 1.703500e-17 0 
   13.182564 9.797136e-03 1.691300e-17 0 
   13.212950 9.771357e-03 1.679100e-17 0 
   13.243422 9.744570e-03 1.666800e-17 0 
   13.273948 9.717303e-03 1.654500e-17 0 
   13.304547 9.689581e-03 1.642200e-17 0 
   13.335214 9.661391e-03 1.629900e-17 0 
   13.365953 9.637502e-03 1.618400e-17 0 
   13.396763 9.613783e-03 1.607000e-17 0 
   13.427642 9.589639e-03 1.595600e-17 0 
   13.458609 9.564488e-03 1.584100e-17 0 
   13.489633 9.538878e-03 1.572600e-17 0 
   13.520727 9.512825e-03 1.561100e-17 0 
   13.551894 9.485721e-03 1.549500e-17 0 
   13.583131 9.458775e-03 1.538000e-17 0 
   13.614441 9.432614e-03 1.526700e-17 0 
   13.645839 9.409758e-03 1.516000e-17 0 
   13.677294 9.385844e-03 1.505200e-17 0 
   13.708820 9.362133e-03 1.494500e-17 0 
   13.740420 9.337377e-03 1.483700e-17 0 
   13.772092 9.312190e-03 1.472900e-17 0 
   13.803839 9.285941e-03 1.462000e-17 0 
   13.835658 9.259886e-03 1.451200e-17 0 
   13.867564 9.232771e-03 1.440300e-17 0 
   13.899530 9.209054e-03 1.430000e-17 0 
   13.931570 9.186862e-03 1.420000e-17 0 
   13.963683 9.163619e-03 1.409900e-17 0 
   13.995870 9.139965e-03 1.399800e-17 0 
   14.028131 9.115242e-03 1.389600e-17 0 
   14.060467 9.090755e-03 1.379500e-17 0 
   14.092894 9.065206e-03 1.369300e-17 0 
   14.125378 9.039207e-03 1.359100e-17 0 
   14.157939 9.012775e-03 1.348900e-17 0 
   14.190573 8.991276e-03 1.339500e-17 0 
   14.223284 8.968714e-03 1.330000e-17 0 
   14.256070 8.946428e-03 1.320600e-17 0 
   14.288947 8.922404e-03 1.311000e-17 0 
   14.321883 8.898630e-03 1.301500e-17 0 
   14.354897 8.874450e-03 1.292000e-17 0 
   14.387986 8.849164e-03 1.282400e-17 0 
   14.421152 8.823457e-03 1.272800e-17 0 
   14.454392 8.800109e-03 1.263600e-17 0 
   14.487711 8.778457e-03 1.254700e-17 0 
   14.521122 8.756436e-03 1.245800e-17 0 
   14.554594 8.734006e-03 1.236900e-17 0 
   14.588144 8.710475e-03 1.227900e-17 0 
   14.621770 8.687251e-03 1.219000e-17 0 
   14.655475 8.662912e-03 1.210000e-17 0 
   14.689256 8.638162e-03 1.201000e-17 0 
   14.723133 8.613020e-03 1.192000e-17 0 
   14.757070 8.591797e-03 1.183600e-17 0 
   14.791086 8.570193e-03 1.175200e-17 0 
   14.825181 8.548942e-03 1.166900e-17 0 
   14.859355 8.526577e-03 1.158500e-17 0 
   14.893606 8.503821e-03 1.150100e-17 0 
   14.927938 8.479931e-03 1.141600e-17 0 
   14.962363 8.456402e-03 1.133200e-17 0 
   14.996853 8.431711e-03 1.124700e-17 0 
   15.031422 8.408870e-03 1.116500e-17 0 
   15.066070 8.387907e-03 1.108600e-17 0 
   15.100798 8.367332e-03 1.100800e-17 0 
   15.135606 8.345624e-03 1.092900e-17 0 
   15.170513 8.323558e-03 1.085000e-17 0 
   15.205481 8.301090e-03 1.077100e-17 0 
   15.240531 8.278238e-03 1.069200e-17 0 
   15.275661 8.254997e-03 1.061300e-17 0 
   15.310872 8.230585e-03 1.053300e-17 0 
   15.346166 8.209697e-03 1.045800e-17 0 
   15.381539 8.189229e-03 1.038400e-17 0 
   15.417011 8.169207e-03 1.031100e-17 0 
   15.452548 8.148013e-03 1.023700e-17 0 
   15.488169 8.126449e-03 1.016300e-17 0 
   15.523870 8.103709e-03 1.008800e-17 0 
   15.559653 8.081391e-03 1.001400e-17 0 
   15.595519 8.057967e-03 9.939100e-18 0 
   15.631469 8.034888e-03 9.865100e-18 0 
   15.667517 8.015449e-03 9.796000e-18 0 
   15.703631 7.995561e-03 9.726800e-18 0 
   15.739830 7.975153e-03 9.657400e-18 0 
   15.776111 7.954220e-03 9.587800e-18 0 
   15.812477 7.932842e-03 9.518100e-18 0 
   15.848925 7.911013e-03 9.448300e-18 0 
   15.885475 7.888577e-03 9.378200e-18 0 
   15.922092 7.865665e-03 9.308000e-18 0 
   15.958794 7.844834e-03 9.240700e-18 0 
   15.995580 7.825606e-03 9.175700e-18 0 
   16.032452 7.806032e-03 9.110700e-18 0 
   16.069406 7.785853e-03 9.045400e-18 0 
   16.106448 7.765236e-03 8.980000e-18 0 
   16.143592 7.744192e-03 8.914500e-18 0 
   16.180805 7.722597e-03 8.848800e-18 0 
   16.218103 7.700549e-03 8.783000e-18 0 
   16.255486 7.677957e-03 8.717000e-18 0 
   16.292956 7.659153e-03 8.655700e-18 0 
   16.330513 7.640277e-03 8.594700e-18 0 
   16.368173 7.620902e-03 8.533500e-18 0 
   16.405903 7.600989e-03 8.472100e-18 0 
   16.443720 7.580730e-03 8.410700e-18 0 
   16.481623 7.559850e-03 8.349000e-18 0 
   16.519616 7.538617e-03 8.287300e-18 0 
   16.557694 7.516842e-03 8.225400e-18 0 
   16.595861 7.496085e-03 8.165000e-18 0 
   16.634134 7.477852e-03 8.107700e-18 0 
   16.672477 7.459179e-03 8.050300e-18 0 
   16.710908 7.440083e-03 7.992800e-18 0 
   16.749428 7.420465e-03 7.935100e-18 0 
   16.788036 7.400412e-03 7.877300e-18 0 
   16.826734 7.379924e-03 7.819400e-18 0 
   16.865539 7.358913e-03 7.761300e-18 0 
   16.904416 7.337440e-03 7.703100e-18 0 
   16.943381 7.318771e-03 7.648200e-18 0 
   16.982437 7.300734e-03 7.594300e-18 0 
   17.021583 7.282278e-03 7.540300e-18 0 
   17.060819 7.263496e-03 7.486300e-18 0 
   17.100145 7.244094e-03 7.432000e-18 0 
   17.139581 7.224373e-03 7.377700e-18 0 
   17.179089 7.204103e-03 7.323200e-18 0 
   17.218688 7.183393e-03 7.268600e-18 0 
   17.258378 7.162835e-03 7.214500e-18 0 
   17.298161 7.145526e-03 7.164000e-18 0 
   17.338034 7.127803e-03 7.113400e-18 0 
   17.377998 7.109562e-03 7.062600e-18 0 
   17.418075 7.090916e-03 7.011700e-18 0 
   17.458225 7.071932e-03 6.960800e-18 0 
   17.498469 7.052417e-03 6.909700e-18 0 
   17.538803 7.032468e-03 6.858500e-18 0 
   17.579231 7.011979e-03 6.807100e-18 0 
   17.619753 6.993429e-03 6.757900e-18 0 
   17.660388 6.976340e-03 6.710400e-18 0 
   17.701095 6.958823e-03 6.662800e-18 0 
   17.741898 6.940892e-03 6.615100e-18 0 
   17.782794 6.922436e-03 6.567200e-18 0 
   17.823784 6.903662e-03 6.519300e-18 0 
   17.864870 6.884462e-03 6.471300e-18 0 
   17.906050 6.864723e-03 6.423100e-18 0 
   17.947344 6.844669e-03 6.374900e-18 0 
   17.988714 6.827938e-03 6.330100e-18 0 
   18.030180 6.811014e-03 6.285400e-18 0 
   18.071741 6.793789e-03 6.240700e-18 0 
   18.113397 6.776039e-03 6.195800e-18 0 
   18.155150 6.757983e-03 6.150900e-18 0 
   18.197019 6.739409e-03 6.105800e-18 0 
   18.238964 6.720393e-03 6.060600e-18 0 
   18.281006 6.700948e-03 6.015300e-18 0 
   18.323145 6.682523e-03 5.971200e-18 0 
   18.365381 6.666258e-03 5.929300e-18 0 
   18.407714 6.649586e-03 5.887300e-18 0 
   18.450145 6.632506e-03 5.845200e-18 0 
   18.492695 6.615143e-03 5.803100e-18 0 
   18.535322 6.597233e-03 5.760800e-18 0 
   18.578047 6.578902e-03 5.718400e-18 0 
   18.620870 6.560260e-03 5.676000e-18 0 
   18.663794 6.541076e-03 5.633400e-18 0 
   18.706814 6.524373e-03 5.593200e-18 0 
   18.749934 6.508314e-03 5.553800e-18 0 
   18.793175 6.491982e-03 5.514400e-18 0 
   18.836495 6.475111e-03 5.474800e-18 0 
   18.879914 6.457944e-03 5.435200e-18 0 
   18.923434 6.440244e-03 5.395400e-18 0 
   18.967053 6.422241e-03 5.355600e-18 0 
   19.010775 6.403816e-03 5.315700e-18 0 
   19.054616 6.385460e-03 5.276100e-18 0 
   19.098539 6.369946e-03 5.239100e-18 0 
   19.142563 6.354152e-03 5.202100e-18 0 
   19.186688 6.337954e-03 5.165000e-18 0 
   19.230914 6.321348e-03 5.127800e-18 0 
   19.275242 6.304329e-03 5.090500e-18 0 
   19.319673 6.287019e-03 5.053200e-18 0 
   19.364228 6.269179e-03 5.015700e-18 0 
   19.408864 6.251026e-03 4.978200e-18 0 
   19.453603 6.234339e-03 4.942100e-18 0 
   19.498444 6.219137e-03 4.907400e-18 0 
   19.543389 6.203535e-03 4.872600e-18 0 
   19.588439 6.187530e-03 4.837700e-18 0 
   19.633613 6.171129e-03 4.802700e-18 0 
   19.678870 6.154432e-03 4.767700e-18 0 
   19.724231 6.137189e-03 4.732500e-18 0 
   19.769697 6.119657e-03 4.697300e-18 0 
   19.815267 6.101700e-03 4.662000e-18 0 
   19.860942 6.086866e-03 4.629300e-18 0 
   19.906723 6.071766e-03 4.596600e-18 0 
   19.952631 6.056409e-03 4.563900e-18 0 
   19.998623 6.040636e-03 4.531100e-18 0 
   20.044722 6.024452e-03 4.498200e-18 0 
   20.090927 6.007992e-03 4.465300e-18 0 
   20.137238 5.990980e-03 4.432200e-18 0 
   20.183656 5.973684e-03 4.399100e-18 0 
   20.230203 5.957205e-03 4.366800e-18 0 
   20.276834 5.942762e-03 4.336200e-18 0 
   20.323573 5.927922e-03 4.305500e-18 0 
   20.370422 5.912681e-03 4.274700e-18 0 
   20.417377 5.897172e-03 4.243900e-18 0 
   20.464441 5.881255e-03 4.213000e-18 0 
   20.511613 5.864924e-03 4.182000e-18 0 
   20.558916 5.848189e-03 4.150900e-18 0 
   20.606305 5.831162e-03 4.119800e-18 0 
   20.653805 5.816271e-03 4.090400e-18 0 
   20.701412 5.801975e-03 4.061600e-18 0 
   20.749131 5.787280e-03 4.032700e-18 0 
   20.796959 5.772325e-03 4.003800e-18 0 
   20.844898 5.756965e-03 3.974800e-18 0 
   20.892970 5.741206e-03 3.945700e-18 0 
   20.941130 5.725167e-03 3.916600e-18 0 
   20.989400 5.708710e-03 3.887400e-18 0 
   21.037783 5.692423e-03 3.858500e-18 0 
   21.086275 5.678679e-03 3.831500e-18 0 
   21.134881 5.664539e-03 3.804400e-18 0 
   21.183622 5.650009e-03 3.777200e-18 0 
   21.232452 5.635213e-03 3.750000e-18 0 
   21.281394 5.620159e-03 3.722800e-18 0 
   21.330448 5.604543e-03 3.695400e-18 0 
   21.379617 5.588816e-03 3.668100e-18 0 
   21.428898 5.572517e-03 3.640600e-18 0 
   21.478294 5.557795e-03 3.614300e-18 0 
   21.527827 5.544066e-03 3.588800e-18 0 
   21.577450 5.530235e-03 3.563400e-18 0 
   21.627188 5.516001e-03 3.537900e-18 0 
   21.677039 5.501362e-03 3.512300e-18 0 
   21.727006 5.486471e-03 3.486700e-18 0 
   21.777089 5.471167e-03 3.461000e-18 0 
   21.827311 5.455459e-03 3.435200e-18 0 
   21.877623 5.439475e-03 3.409400e-18 0 
   21.928053 5.426274e-03 3.385500e-18 0 
   21.978598 5.412835e-03 3.361600e-18 0 
   22.029261 5.398994e-03 3.337600e-18 0 
   22.080041 5.385074e-03 3.313700e-18 0 
   22.130936 5.370583e-03 3.289600e-18 0 
   22.181973 5.355855e-03 3.265500e-18 0 
   22.233105 5.340865e-03 3.241400e-18 0 
   22.284355 5.325292e-03 3.217100e-18 0 
   22.335720 5.310624e-03 3.193500e-18 0 
   22.387206 5.297714e-03 3.171100e-18 0 
   22.438811 5.284571e-03 3.148700e-18 0 
   22.490558 5.271036e-03 3.126200e-18 0 
   22.542400 5.257083e-03 3.103600e-18 0 
   22.594363 5.242889e-03 3.081000e-18 0 
   22.646444 5.228280e-03 3.058300e-18 0 
   22.698645 5.213425e-03 3.035600e-18 0 
   22.750967 5.198322e-03 3.012900e-18 0 
   22.803411 5.185049e-03 2.991400e-18 0 
   22.855998 5.172249e-03 2.970300e-18 0 
   22.908683 5.159210e-03 2.949200e-18 0 
   22.961489 5.145764e-03 2.928000e-18 0 
   23.014417 5.132085e-03 2.906800e-18 0 
   23.067467 5.118170e-03 2.885600e-18 0 
   23.120639 5.103839e-03 2.864300e-18 0 
   23.173934 5.089087e-03 2.842900e-18 0 
   23.227378 5.074642e-03 2.821800e-18 0 
   23.280919 5.062291e-03 2.802000e-18 0 
   23.334583 5.049719e-03 2.782200e-18 0 
   23.388370 5.036922e-03 2.762400e-18 0 
   23.442281 5.023716e-03 2.742500e-18 0 
   23.496319 5.010099e-03 2.722500e-18 0 
   23.550505 4.996258e-03 2.702500e-18 0 
   23.604791 4.982173e-03 2.682500e-18 0 
   23.659202 4.967664e-03 2.662400e-18 0 
   23.713738 4.954602e-03 2.643200e-18 0 
   23.768398 4.942444e-03 2.624600e-18 0 
   23.823187 4.930068e-03 2.606000e-18 0 
   23.878102 4.917282e-03 2.587300e-18 0 
   23.933167 4.904283e-03 2.568600e-18 0 
   23.988336 4.891051e-03 2.549900e-18 0 
   24.043630 4.877397e-03 2.531100e-18 0 
   24.099053 4.863321e-03 2.512200e-18 0 
   24.154603 4.849205e-03 2.493400e-18 0 
   24.210281 4.837199e-03 2.475800e-18 0 
   24.266114 4.825382e-03 2.458400e-18 0 
   24.322048 4.813146e-03 2.440900e-18 0 
   24.378113 4.800496e-03 2.423300e-18 0 
   24.434306 4.787626e-03 2.405700e-18 0 
   24.490630 4.774536e-03 2.388100e-18 0 
   24.547081 4.761222e-03 2.370500e-18 0 
   24.603664 4.747482e-03 2.352800e-18 0 
   24.660405 4.734335e-03 2.335500e-18 0 
   24.717248 4.722788e-03 2.319100e-18 0 
   24.774223 4.711034e-03 2.302700e-18 0 
   24.831330 4.698865e-03 2.286200e-18 0 
   24.888567 4.686483e-03 2.269700e-18 0 
   24.945937 4.673887e-03 2.253200e-18 0 
   25.003441 4.660866e-03 2.236600e-18 0 
   25.061102 4.647635e-03 2.220000e-18 0 
   25.118870 4.634174e-03 2.203400e-18 0 
   25.703948 4.512753e-03 2.049100e-18 0 
   26.302684 4.394973e-03 1.905800e-18 0 
   26.915337 4.279481e-03 1.772200e-18 0 
   27.542291 4.166615e-03 1.647800e-18 0 
   28.183816 4.056101e-03 1.531900e-18 0 
   28.840319 3.947829e-03 1.423900e-18 0 
   29.512078 3.844139e-03 1.324100e-18 0 
   30.199519 3.743805e-03 1.231500e-18 0 
   30.902938 3.645521e-03 1.145200e-18 0 
   31.622778 3.549334e-03 1.064800e-18 0 
   32.359381 3.455388e-03 9.899600e-19 0 
   33.113109 3.363337e-03 9.202200e-19 0 
   33.884431 3.274690e-03 8.556400e-19 0 
   34.673681 1.067651e-02 2.664100e-18 0 
