# NGC 5953       
# 
# An Atlas of Galaxy Spectral Energy Distributions from the Ultraviolet to the Mid-Infrared
# Brown et al. (2014)
# http://dx.doi.org/10.5072/03/529D3551F0117
# http://dx.doi.org/10.17909/t9-5bxk-dh29
# 
# The Spectral Energy Distributions of Active Galactic Nuclei
# Brown et al. (2019)
# http://dx.doi.org/10.17909/t9-3dbt-8734
# 
# Column 1: Observed wavelength (um)
# Column 2: f_nu (Jy)
# Column 3: f_lam (erg/s/cm2/A)
# Column 4: Source (0 = model, 1 = Optical Spectrun, 2 = Akari, 3 = Spitzer IRS)
# 
    0.010069 3.026775e-14 8.956300e-23 0 
    0.010257 4.325722e-14 1.233500e-22 0 
    0.010471 5.662270e-14 1.549300e-22 0 
    0.010666 7.621021e-14 2.009700e-22 0 
    0.010864 1.032732e-13 2.625000e-22 0 
    0.011066 1.686510e-13 4.131700e-22 0 
    0.011482 2.812201e-13 6.399300e-22 0 
    0.011885 4.385395e-13 9.313900e-22 0 
    0.012190 1.534651e-12 3.098300e-21 0 
    0.012589 2.306719e-12 4.366500e-21 0 
    0.012794 2.773449e-12 5.083100e-21 0 
    0.012882 3.054733e-12 5.522400e-21 0 
    0.013183 3.944893e-12 6.809700e-21 0 
    0.013274 4.709919e-12 8.019200e-21 0 
    0.013490 5.533893e-12 9.122800e-21 0 
    0.013804 7.745238e-12 1.219400e-20 0 
    0.014093 9.728046e-12 1.469400e-20 0 
    0.014388 2.218230e-11 3.214600e-20 0 
    0.014791 5.058266e-11 6.936300e-20 0 
    0.015205 6.561153e-11 8.513900e-20 0 
    0.015596 8.512423e-11 1.049900e-19 0 
    0.015996 1.101614e-10 1.291600e-19 0 
    0.016293 1.324389e-10 1.496700e-19 0 
    0.016711 1.694348e-10 1.820200e-19 0 
    0.017100 2.113539e-10 2.168400e-19 0 
    0.017418 2.506176e-10 2.478200e-19 0 
    0.017824 3.090431e-10 2.918300e-19 0 
    0.018113 3.597406e-10 3.289500e-19 0 
    0.018323 3.981114e-10 3.557400e-19 0 
    0.018707 4.830736e-10 4.141200e-19 0 
    0.019231 6.109614e-10 4.956000e-19 0 
    0.019543 7.030546e-10 5.522400e-19 0 
    0.019953 8.375827e-10 6.311500e-19 0 
    0.020324 9.931734e-10 7.213200e-19 0 
    0.020654 1.127244e-09 7.927400e-19 0 
    0.021135 1.324386e-09 8.894700e-19 0 
    0.021727 1.729795e-09 1.099300e-18 0 
    0.022131 2.013817e-09 1.233500e-18 0 
    0.022439 2.228530e-09 1.327800e-18 0 
    0.022856 2.588302e-09 1.486400e-18 0 
    0.023174 4.246330e-09 2.372100e-18 0 
    0.023550 7.378802e-09 3.991400e-18 0 
    0.024155 1.039966e-08 5.347200e-18 0 
    0.024774 1.137629e-08 5.560700e-18 0 
    0.025351 1.358311e-08 6.340600e-18 0 
    0.025882 1.276452e-08 5.716500e-18 0 
    0.026182 1.563208e-08 6.841200e-18 0 
    0.026546 1.762007e-08 7.501200e-18 0 
    0.027102 1.945421e-08 7.945700e-18 0 
    0.027606 2.128216e-08 8.377800e-18 0 
    0.028054 2.306750e-08 8.792900e-18 0 
    0.028576 2.523556e-08 9.271100e-18 0 
    0.029174 2.673006e-08 9.421700e-18 0 
    0.029785 2.992344e-08 1.011900e-17 0 
    0.030269 3.155130e-08 1.033100e-17 0 
    0.030974 3.556454e-08 1.112100e-17 0 
    0.031989 4.178460e-08 1.225000e-17 0 
    0.033037 4.786343e-08 1.315600e-17 0 
    0.034041 5.382964e-08 1.393600e-17 0 
    0.034995 5.998336e-08 1.469400e-17 0 
    0.035975 6.668153e-08 1.545700e-17 0 
    0.036813 7.396213e-08 1.637300e-17 0 
    0.037757 8.072647e-08 1.698800e-17 0 
    0.038726 8.570804e-08 1.714500e-17 0 
    0.039719 9.682777e-08 1.841300e-17 0 
    0.040738 1.064181e-07 1.923700e-17 0 
    0.041687 1.142897e-07 1.973000e-17 0 
    0.042462 1.205079e-07 2.005100e-17 0 
    0.043251 1.270607e-07 2.037700e-17 0 
    0.044361 1.383629e-07 2.109300e-17 0 
    0.045394 1.475744e-07 2.148500e-17 0 
    0.046345 1.556052e-07 2.173400e-17 0 
    0.047315 1.652018e-07 2.213800e-17 0 
    0.048306 1.762003e-07 2.265300e-17 0 
    0.049317 1.836529e-07 2.265300e-17 0 
    0.050350 1.967931e-07 2.328800e-17 0 
    0.050933 2.027690e-07 2.344900e-17 0 
    0.051523 2.317483e-07 2.619000e-17 0 
    0.052360 2.415505e-07 2.643200e-17 0 
    0.053333 2.517681e-07 2.655400e-17 0 
    0.054325 2.564499e-07 2.606900e-17 0 
    0.055335 2.779751e-07 2.723500e-17 0 
    0.056364 3.055013e-07 2.884900e-17 0 
    0.057412 3.296248e-07 3.000100e-17 0 
    0.058345 3.373048e-07 2.972600e-17 0 
    0.059429 3.672843e-07 3.119800e-17 0 
    0.060395 3.775829e-07 3.105500e-17 0 
    0.061376 3.819500e-07 3.041800e-17 0 
    0.062373 4.456572e-07 3.436600e-17 0 
    0.063387 4.688233e-07 3.500500e-17 0 
    0.064417 4.943220e-07 3.573800e-17 0 
    0.065464 5.309064e-07 3.716500e-17 0 
    0.066222 5.508296e-07 3.768200e-17 0 
    0.066988 5.847970e-07 3.909600e-17 0 
    0.067920 6.109471e-07 3.973100e-17 0 
    0.069024 6.194559e-07 3.900600e-17 0 
    0.069984 7.161506e-07 4.386600e-17 0 
    0.070958 7.096047e-07 4.228000e-17 0 
    0.072111 8.184794e-07 4.722000e-17 0 
    0.073114 8.630029e-07 4.843200e-17 0 
    0.073961 9.036819e-07 4.956000e-17 0 
    0.074989 9.885663e-07 5.273900e-17 0 
    0.076033 1.054419e-06 5.471800e-17 0 
    0.076913 1.088945e-06 5.522400e-17 0 
    0.077983 1.213411e-06 5.985900e-17 0 
    0.079068 1.303198e-06 6.253600e-17 0 
    0.079983 1.383583e-06 6.488300e-17 0 
    0.081096 1.472339e-06 6.716300e-17 0 
    0.082035 1.548850e-06 6.904500e-17 0 
    0.082985 1.694380e-06 7.381300e-17 0 
    0.084140 1.534655e-06 6.503200e-17 0 
    0.085114 1.866421e-06 7.729100e-17 0 
    0.086099 1.963392e-06 7.945700e-17 0 
    0.087096 2.128172e-06 8.416500e-17 0 
    0.088105 2.301501e-06 8.894700e-17 0 
    0.089125 2.511925e-06 9.487000e-17 0 
    0.090157 2.691573e-06 9.934100e-17 0 
    0.090991 2.773310e-06 1.004900e-16 0 
    0.092045 4.159326e-06 1.472800e-16 0 
    0.093111 2.506167e-05 8.672200e-16 0 
    0.094189 5.597664e-05 1.892900e-15 0 
    0.095060 1.101538e-04 3.657000e-15 0 
    0.096161 1.581288e-04 5.130200e-15 0 
    0.097051 1.901110e-04 6.055200e-15 0 
    0.098175 3.656140e-05 1.138000e-15 0 
    0.099083 1.862107e-04 5.690200e-15 0 
    0.100231 1.954398e-04 5.836200e-15 0 
    0.101158 2.735333e-04 8.019200e-15 0 
    0.102094 2.624280e-04 7.553200e-15 0 
    0.103276 1.122056e-04 3.156000e-15 0 
    0.104232 2.013772e-04 5.560700e-15 0 
    0.105196 3.775787e-04 1.023600e-14 0 
    0.106170 3.810710e-04 1.014200e-14 0 
    0.107152 3.191603e-04 8.339300e-15 0 
    0.108143 3.819480e-04 9.797800e-15 0 
    0.109144 3.191613e-04 8.037700e-15 0 
    0.110154 4.159098e-04 1.028300e-14 0 
    0.111173 4.102097e-04 9.957000e-15 0 
    0.112202 4.083294e-04 9.730400e-15 0 
    0.113240 3.793217e-04 8.874200e-15 0 
    0.114288 4.742721e-04 1.089300e-14 0 
    0.115345 4.425953e-04 9.980000e-15 0 
    0.116145 4.753307e-04 1.057100e-14 0 
    0.117220 5.023537e-04 1.096800e-14 0 
    0.118304 3.715428e-04 7.964000e-15 0 
    0.119399 5.058547e-04 1.064500e-14 0 
    0.120226 3.681363e-04 7.640700e-15 0 
    0.121339 2.799068e-04 5.703400e-15 0 
    0.122180 1.690491e-04 3.397300e-15 0 
    0.123311 3.656035e-04 7.213200e-15 0 
    0.124451 5.546272e-04 1.074300e-14 0 
    0.125314 6.208679e-04 1.186100e-14 0 
    0.126183 6.109328e-04 1.151100e-14 0 
    0.127350 5.457905e-04 1.009600e-14 0 
    0.128233 6.950204e-04 1.268000e-14 0 
    0.129420 7.396037e-04 1.324700e-14 0 
    0.130317 6.194658e-04 1.094300e-14 0 
    0.131220 6.223408e-04 1.084300e-14 0 
    0.132434 7.691332e-04 1.315600e-14 0 
    0.133352 7.516178e-04 1.268000e-14 0 
    0.134277 6.902605e-04 1.148500e-14 0 
    0.135519 8.128525e-04 1.327800e-14 0 
    0.136458 8.035489e-04 1.294600e-14 0 
    0.137404 7.430484e-04 1.180700e-14 0 
    0.138357 7.870823e-04 1.233500e-14 0 
    0.139316 8.090944e-04 1.250600e-14 0 
    0.140281 7.261463e-04 1.107000e-14 0 
    0.141579 7.673746e-04 1.148500e-14 0 
    0.142561 7.998706e-04 1.180700e-14 0 
    0.143549 8.260385e-04 1.202600e-14 0 
    0.144544 8.356490e-04 1.199900e-14 0 
    0.145211 8.851298e-04 1.259300e-14 0 
    0.145546 9.015756e-04 1.276800e-14 0 
    0.146555 8.933570e-04 1.247800e-14 0 
    0.147571 8.492381e-04 1.169900e-14 0 
    0.148594 8.590660e-04 1.167200e-14 0 
    0.149624 8.831060e-04 1.183400e-14 0 
    0.150314 9.036966e-04 1.199900e-14 0 
    0.151356 8.770191e-04 1.148500e-14 0 
    0.152055 8.016726e-04 1.040200e-14 0 
    0.152757 8.590281e-04 1.104400e-14 0 
    0.153462 8.472715e-04 1.079300e-14 0 
    0.154525 7.638485e-04 9.596900e-15 0 
    0.155597 8.375194e-04 1.037800e-14 0 
    0.156675 8.072545e-04 9.865800e-15 0 
    0.157398 8.317501e-04 1.007200e-14 0 
    0.158489 8.954002e-04 1.069400e-14 0 
    0.159588 9.441110e-04 1.112100e-14 0 
    0.160694 9.817737e-04 1.140600e-14 0 
    0.161436 9.661028e-04 1.112100e-14 0 
    0.162555 9.840346e-04 1.117200e-14 0 
    0.163682 9.528056e-04 1.066900e-14 0 
    0.164437 1.016236e-03 1.127500e-14 0 
    0.165577 1.044723e-03 1.143200e-14 0 
    0.166725 9.863382e-04 1.064500e-14 0 
    0.167494 1.083922e-03 1.159100e-14 0 
    0.168267 9.908881e-04 1.049900e-14 0 
    0.168655 1.119481e-03 1.180700e-14 0 
    0.169434 1.166880e-03 1.219400e-14 0 
    0.170608 1.119459e-03 1.153800e-14 0 
    0.171791 1.099032e-03 1.117200e-14 0 
    0.172584 1.076538e-03 1.084300e-14 0 
    0.173780 1.088994e-03 1.081800e-14 0 
    0.174582 1.169474e-03 1.151100e-14 0 
    0.175792 1.158753e-03 1.124900e-14 0 
    0.176604 1.247455e-03 1.199900e-14 0 
    0.177828 1.158765e-03 1.099300e-14 0 
    0.178649 1.213426e-03 1.140600e-14 0 
    0.179473 1.244509e-03 1.159100e-14 0 
    0.180717 1.355225e-03 1.244900e-14 0 
    0.181552 1.348989e-03 1.227800e-14 0 
    0.182810 1.294226e-03 1.161800e-14 0 
    0.183654 1.321382e-03 1.175300e-14 0 
    0.184502 1.288338e-03 1.135400e-14 0 
    0.185780 1.202245e-03 1.045000e-14 0 
    0.186638 1.241707e-03 1.069400e-14 0 
    0.187932 1.315259e-03 1.117200e-14 0 
    0.188799 1.399663e-03 1.178000e-14 0 
    0.189671 1.327481e-03 1.107000e-14 0 
    0.190546 1.315310e-03 1.086800e-14 0 
    0.191867 1.389934e-03 1.132700e-14 0 
    0.192753 1.374068e-03 1.109500e-14 0 
    0.193642 1.349025e-03 1.079300e-14 0 
    0.194984 1.345864e-03 1.062000e-14 0 
    0.195884 1.499649e-03 1.172500e-14 0 
    0.196789 1.445509e-03 1.119800e-14 0 
    0.198153 1.599640e-03 1.222200e-14 0 
    0.199067 1.633056e-03 1.236300e-14 0 
    0.199526 1.584861e-03 1.194300e-14 0 
    0.200909 1.574078e-03 1.169900e-14 0 
    0.201837 1.603319e-03 1.180700e-14 0 
    0.202768 1.584978e-03 1.156500e-14 0 
    0.203704 1.625648e-03 1.175300e-14 0 
    0.204645 1.629395e-03 1.167200e-14 0 
    0.206063 1.721974e-03 1.216600e-14 0 
    0.207014 1.663480e-03 1.164500e-14 0 
    0.207970 1.678880e-03 1.164500e-14 0 
    0.208930 1.836574e-03 1.262200e-14 0 
    0.209894 1.945343e-03 1.324700e-14 0 
    0.210863 1.862119e-03 1.256400e-14 0 
    0.211836 1.862142e-03 1.244900e-14 0 
    0.212814 1.918778e-03 1.271000e-14 0 
    0.213796 1.940945e-03 1.273900e-14 0 
    0.214783 1.815591e-03 1.180700e-14 0 
    0.215774 1.940865e-03 1.250600e-14 0 
    0.216770 2.009103e-03 1.282700e-14 0 
    0.217771 1.940915e-03 1.227800e-14 0 
    0.218776 1.954403e-03 1.225000e-14 0 
    0.219786 2.013711e-03 1.250600e-14 0 
    0.220801 2.128235e-03 1.309600e-14 0 
    0.221820 2.079694e-03 1.268000e-14 0 
    0.222844 1.954430e-03 1.180700e-14 0 
    0.223872 1.949950e-03 1.167200e-14 0 
    0.224905 2.172677e-03 1.288600e-14 0 
    0.225944 2.094099e-03 1.230600e-14 0 
    0.226986 1.972459e-03 1.148500e-14 0 
    0.228034 2.013768e-03 1.161800e-14 0 
    0.229087 2.118477e-03 1.211000e-14 0 
    0.230144 2.254597e-03 1.277000e-14 0 
    0.231207 2.121161e-03 1.190400e-14 0 
    0.232274 2.223689e-03 1.236500e-14 0 
    0.232809 2.129700e-03 1.178800e-14 0 
    0.233884 1.737053e-03 9.526500e-15 0 
    0.234963 1.942204e-03 1.055400e-14 0 
    0.236048 1.802239e-03 9.703600e-15 0 
    0.237137 2.144388e-03 1.144000e-14 0 
    0.238232 1.861320e-03 9.838800e-15 0 
    0.239332 2.024650e-03 1.060400e-14 0 
    0.239883 1.756239e-03 9.156000e-15 0 
    0.240991 1.932385e-03 9.981900e-15 0 
    0.242103 1.894967e-03 9.698900e-15 0 
    0.243220 1.991190e-03 1.009800e-14 0 
    0.244343 2.304754e-03 1.158100e-14 0 
    0.244906 2.253609e-03 1.127200e-14 0 
    0.246037 2.445784e-03 1.212100e-14 0 
    0.247172 2.465550e-03 1.210700e-14 0 
    0.248313 2.446026e-03 1.190100e-14 0 
    0.248886 2.326626e-03 1.126800e-14 0 
    0.250035 2.292100e-03 1.099900e-14 0 
    0.251189 2.227285e-03 1.059000e-14 0 
    0.252348 2.668596e-03 1.257200e-14 0 
    0.252930 2.150579e-03 1.008500e-14 0 
    0.253513 2.098035e-03 9.793400e-15 0 
    0.254097 2.080057e-03 9.664900e-15 0 
    0.255270 2.226395e-03 1.025000e-14 0 
    0.256448 2.270666e-03 1.035800e-14 0 
    0.257040 2.614593e-03 1.187200e-14 0 
    0.258226 2.477187e-03 1.114500e-14 0 
    0.259418 2.719500e-03 1.212300e-14 0 
    0.260016 2.671430e-03 1.185400e-14 0 
    0.261216 2.626091e-03 1.154600e-14 0 
    0.262422 2.516798e-03 1.096400e-14 0 
    0.263027 2.438477e-03 1.057400e-14 0 
    0.264241 2.751969e-03 1.182400e-14 0 
    0.265461 3.098781e-03 1.319200e-14 0 
    0.266072 3.609802e-03 1.529700e-14 0 
    0.267301 3.953795e-03 1.660100e-14 0 
    0.268534 3.361792e-03 1.398600e-14 0 
    0.269154 3.629438e-03 1.503000e-14 0 
    0.270396 3.770489e-03 1.547100e-14 0 
    0.271019 3.409364e-03 1.392500e-14 0 
    0.272270 3.700370e-03 1.497500e-14 0 
    0.273527 3.348062e-03 1.342500e-14 0 
    0.274157 3.304375e-03 1.318900e-14 0 
    0.275423 3.602741e-03 1.424800e-14 0 
    0.276058 2.830874e-03 1.114400e-14 0 
    0.277332 3.108056e-03 1.212300e-14 0 
    0.278612 3.428163e-03 1.324900e-14 0 
    0.279254 3.667271e-03 1.410800e-14 0 
    0.280543 3.154209e-03 1.202300e-14 0 
    0.281190 2.214057e-03 8.400600e-15 0 
    0.282488 2.453381e-03 9.223300e-15 0 
    0.283139 3.698670e-03 1.384100e-14 0 
    0.284446 4.291711e-03 1.591300e-14 0 
    0.285102 4.196649e-03 1.548900e-14 0 
    0.286418 3.985547e-03 1.457500e-14 0 
    0.287078 3.497641e-03 1.273200e-14 0 
    0.288403 4.460190e-03 1.608700e-14 0 
    0.289068 4.695253e-03 1.685700e-14 0 
    0.290402 4.626245e-03 1.645700e-14 0 
    0.291072 4.759168e-03 1.685200e-14 0 
    0.293089 5.602760e-03 1.956700e-14 0 
    0.295121 5.349170e-03 1.842500e-14 0 
    0.297167 5.298788e-03 1.800100e-14 0 
    0.299227 5.598438e-03 1.875800e-14 0 
    0.301301 5.754084e-03 1.901500e-14 0 
    0.302691 5.950838e-03 1.948500e-14 0 
    0.304789 6.102050e-03 1.970600e-14 0 
    0.306902 6.329804e-03 2.016100e-14 0 
    0.309030 6.596153e-03 2.072100e-14 0 
    0.311172 6.779897e-03 2.100600e-14 0 
    0.313329 7.065332e-03 2.159000e-14 0 
    0.314775 6.962253e-03 2.108000e-14 0 
    0.316957 7.139816e-03 2.132100e-14 0 
    0.319154 7.475113e-03 2.201600e-14 0 
    0.321366 7.023463e-03 2.040200e-14 0 
    0.322849 7.554003e-03 2.174200e-14 0 
    0.325087 7.065165e-03 2.005600e-14 0 
    0.327341 8.223926e-03 2.302500e-14 0 
    0.328852 8.968351e-03 2.487900e-14 0 
    0.331131 9.050691e-03 2.476300e-14 0 
    0.333426 9.133595e-03 2.464700e-14 0 
    0.334195 9.077490e-03 2.438300e-14 0 
    0.334966 9.689035e-03 2.590600e-14 0 
    0.335738 1.027067e-02 2.733500e-14 0 
    0.336512 9.352519e-03 2.477700e-14 0 
    0.337287 9.316392e-03 2.456800e-14 0 
    0.338065 1.012934e-02 2.658900e-14 0 
    0.338844 9.244924e-03 2.415600e-14 0 
    0.339625 8.302928e-03 2.159500e-14 0 
    0.340408 8.882792e-03 2.299700e-14 0 
    0.341193 1.022996e-02 2.636300e-14 0 
    0.341979 9.598446e-03 2.462200e-14 0 
    0.342768 1.024551e-02 2.616100e-14 0 
    0.343558 1.001974e-02 2.546700e-14 0 
    0.344350 1.071975e-02 2.712100e-14 0 
    0.345144 1.041147e-02 2.622000e-14 0 
    0.345939 1.037173e-02 2.600000e-14 0 
    0.346737 8.653106e-03 2.159200e-14 0 
    0.347536 1.113040e-02 2.764600e-14 0 
    0.348337 1.022925e-02 2.529100e-14 0 
    0.349140 1.033173e-02 2.542700e-14 0 
    0.349945 1.010430e-02 2.475300e-14 0 
    0.350752 1.071114e-02 2.611900e-14 0 
    0.351560 1.030778e-02 2.502000e-14 0 
    0.352371 9.942745e-03 2.402300e-14 0 
    0.353183 1.111293e-02 2.672700e-14 0 
    0.353997 1.016630e-02 2.433800e-14 0 
    0.354813 1.077722e-02 2.568200e-14 0 
    0.355631 1.161026e-02 2.754000e-14 0 
    0.356451 1.230762e-02 2.906000e-14 0 
    0.357273 1.243125e-02 2.921700e-14 0 
    0.358096 1.171791e-02 2.741400e-14 0 
    0.358922 1.250805e-02 2.912800e-14 0 
    0.359749 1.024527e-02 2.374900e-14 0 
    0.360579 1.042001e-02 2.404300e-14 0 
    0.361410 9.315183e-03 2.139500e-14 0 
    0.362243 1.200969e-02 2.745700e-14 0 
    0.363078 1.139940e-02 2.594200e-14 0 
    0.363915 1.146085e-02 2.596200e-14 0 
    0.364754 1.120908e-02 2.527500e-14 0 
    0.365595 1.448470e-02 3.251100e-14 0 
    0.366437 1.306909e-02 2.919900e-14 0 
    0.367282 1.240459e-02 2.758700e-14 0 
    0.367860 1.843252e-02 4.086400e-14 1 
    0.368135 1.348684e-02 2.985500e-14 1 
    0.368410 1.086169e-02 2.400800e-14 1 
    0.368685 1.190327e-02 2.627100e-14 1 
    0.368960 1.200271e-02 2.645100e-14 1 
    0.369235 1.186519e-02 2.610900e-14 1 
    0.369510 1.428047e-02 3.137700e-14 1 
    0.369785 1.284909e-02 2.819000e-14 1 
    0.370060 1.118288e-02 2.449800e-14 1 
    0.370335 1.248961e-02 2.732000e-14 1 
    0.370610 1.195830e-02 2.611900e-14 1 
    0.370885 1.191553e-02 2.598700e-14 1 
    0.371160 1.052668e-02 2.292400e-14 1 
    0.371435 1.051285e-02 2.286000e-14 1 
    0.371710 1.127776e-02 2.448700e-14 1 
    0.371985 1.281517e-02 2.778400e-14 1 
    0.372260 1.141186e-02 2.470500e-14 1 
    0.372535 1.168917e-02 2.526800e-14 1 
    0.372810 1.421053e-02 3.067300e-14 1 
    0.373085 1.417675e-02 3.055500e-14 1 
    0.373360 1.343004e-02 2.890300e-14 1 
    0.373635 1.254194e-02 2.695200e-14 1 
    0.373910 1.333029e-02 2.860400e-14 1 
    0.374185 1.477619e-02 3.166000e-14 1 
    0.374460 1.166399e-02 2.495500e-14 1 
    0.374735 1.506447e-02 3.218300e-14 1 
    0.375010 2.244870e-02 4.788800e-14 1 
    0.375285 2.791144e-02 5.945400e-14 1 
    0.375560 2.624900e-02 5.583100e-14 1 
    0.375835 2.263845e-02 4.808100e-14 1 
    0.376110 1.837879e-02 3.897700e-14 1 
    0.376385 1.338693e-02 2.834900e-14 1 
    0.376660 1.351858e-02 2.858600e-14 1 
    0.376935 1.197356e-02 2.528200e-14 1 
    0.377210 1.436913e-02 3.029600e-14 1 
    0.377485 1.165798e-02 2.454400e-14 1 
    0.377760 1.436064e-02 3.019000e-14 1 
    0.378035 1.478123e-02 3.102900e-14 1 
    0.378310 1.521540e-02 3.189400e-14 1 
    0.378585 1.524565e-02 3.191100e-14 1 
    0.378860 1.410087e-02 2.947200e-14 1 
    0.379135 1.119090e-02 2.335600e-14 1 
    0.379410 1.540622e-02 3.210700e-14 1 
    0.379685 1.615849e-02 3.362600e-14 1 
    0.379960 1.357122e-02 2.820100e-14 1 
    0.380235 1.625498e-02 3.372900e-14 1 
    0.380510 1.753767e-02 3.633800e-14 1 
    0.380785 1.952146e-02 4.039000e-14 1 
    0.381060 1.885316e-02 3.895100e-14 1 
    0.381335 1.649458e-02 3.402900e-14 1 
    0.381610 1.626159e-02 3.350000e-14 1 
    0.381885 1.230031e-02 2.530300e-14 1 
    0.382160 1.304680e-02 2.680000e-14 1 
    0.382435 1.351410e-02 2.772000e-14 1 
    0.382710 1.688276e-02 3.458000e-14 1 
    0.382985 1.580206e-02 3.232000e-14 1 
    0.383260 1.681087e-02 3.433400e-14 1 
    0.383535 1.700466e-02 3.468000e-14 1 
    0.383810 1.891315e-02 3.851700e-14 1 
    0.384085 1.817807e-02 3.696700e-14 1 
    0.384360 1.561780e-02 3.171500e-14 1 
    0.384635 1.434022e-02 2.907900e-14 1 
    0.384910 1.577117e-02 3.193500e-14 1 
    0.385185 1.676305e-02 3.389500e-14 1 
    0.385460 1.615108e-02 3.261100e-14 1 
    0.385735 1.423340e-02 2.869800e-14 1 
    0.386010 1.336762e-02 2.691400e-14 1 
    0.386285 1.356225e-02 2.726700e-14 1 
    0.386560 1.563173e-02 3.138300e-14 1 
    0.386835 1.853707e-02 3.716300e-14 1 
    0.387110 1.879021e-02 3.761700e-14 1 
    0.387385 1.842974e-02 3.684300e-14 1 
    0.387660 1.967920e-02 3.928500e-14 1 
    0.387935 1.879063e-02 3.745800e-14 1 
    0.388210 1.953615e-02 3.888900e-14 1 
    0.388485 1.890432e-02 3.757800e-14 1 
    0.388760 2.010087e-02 3.990000e-14 1 
    0.389035 2.125535e-02 4.213200e-14 1 
    0.389310 2.167391e-02 4.290100e-14 1 
    0.389585 2.057988e-02 4.067800e-14 1 
    0.389860 2.071939e-02 4.089600e-14 1 
    0.390135 1.836408e-02 3.619600e-14 1 
    0.390410 2.007168e-02 3.950600e-14 1 
    0.390685 1.695314e-02 3.332100e-14 1 
    0.390960 1.549438e-02 3.041100e-14 1 
    0.391235 1.620548e-02 3.176200e-14 1 
    0.391510 1.614652e-02 3.160200e-14 1 
    0.391785 1.321340e-02 2.582500e-14 1 
    0.392060 1.735705e-02 3.387600e-14 1 
    0.392335 1.777752e-02 3.464800e-14 1 
    0.392610 1.877663e-02 3.654400e-14 1 
    0.392885 1.848753e-02 3.593100e-14 1 
    0.393160 1.856289e-02 3.602700e-14 1 
    0.393435 1.906046e-02 3.694100e-14 1 
    0.393710 1.823044e-02 3.528300e-14 1 
    0.393985 2.181055e-02 4.215300e-14 1 
    0.394260 1.937209e-02 3.738800e-14 1 
    0.394535 1.960978e-02 3.779400e-14 1 
    0.394810 1.970519e-02 3.792500e-14 1 
    0.395085 1.657126e-02 3.184900e-14 1 
    0.395360 1.686997e-02 3.237800e-14 1 
    0.395635 1.737242e-02 3.329600e-14 1 
    0.395910 1.304848e-02 2.497400e-14 1 
    0.396185 1.382055e-02 2.641500e-14 1 
    0.396460 1.555302e-02 2.968500e-14 1 
    0.396735 1.879655e-02 3.582600e-14 1 
    0.397010 1.812122e-02 3.449100e-14 1 
    0.397285 2.045862e-02 3.888600e-14 1 
    0.397560 2.039423e-02 3.871000e-14 1 
    0.397835 2.154936e-02 4.084600e-14 1 
    0.398110 2.061130e-02 3.901400e-14 1 
    0.398385 2.030014e-02 3.837200e-14 1 
    0.398660 1.954678e-02 3.689700e-14 1 
    0.398935 1.748784e-02 3.296500e-14 1 
    0.399210 1.533711e-02 2.887100e-14 1 
    0.399485 1.306975e-02 2.456900e-14 1 
    0.399760 1.341216e-02 2.517800e-14 1 
    0.400035 1.652823e-02 3.098500e-14 1 
    0.400310 1.795580e-02 3.361500e-14 1 
    0.400585 1.983817e-02 3.708800e-14 1 
    0.400860 2.168602e-02 4.048700e-14 1 
    0.401135 2.215131e-02 4.129900e-14 1 
    0.401410 2.351961e-02 4.379000e-14 1 
    0.401685 2.020274e-02 3.756300e-14 1 
    0.401960 2.324965e-02 4.316900e-14 1 
    0.402235 2.395831e-02 4.442400e-14 1 
    0.402510 2.594605e-02 4.804400e-14 1 
    0.402785 2.570301e-02 4.752900e-14 1 
    0.403060 2.454189e-02 4.532000e-14 1 
    0.403335 2.560353e-02 4.721600e-14 1 
    0.403610 2.278551e-02 4.196200e-14 1 
    0.403885 2.521013e-02 4.636400e-14 1 
    0.404160 2.263422e-02 4.157000e-14 1 
    0.404435 2.619700e-02 4.804800e-14 1 
    0.404710 2.642045e-02 4.839200e-14 1 
    0.404985 2.708618e-02 4.954400e-14 1 
    0.405260 2.510123e-02 4.585100e-14 1 
    0.405535 2.406523e-02 4.389900e-14 1 
    0.405810 2.461773e-02 4.484600e-14 1 
    0.406085 2.361550e-02 4.296200e-14 1 
    0.406360 2.599617e-02 4.722900e-14 1 
    0.406635 2.560476e-02 4.645500e-14 1 
    0.406910 2.608922e-02 4.727000e-14 1 
    0.407185 2.619192e-02 4.739200e-14 1 
    0.407460 2.554827e-02 4.616500e-14 1 
    0.407735 2.605159e-02 4.701100e-14 1 
    0.408010 2.458128e-02 4.429800e-14 1 
    0.408285 2.378428e-02 4.280400e-14 1 
    0.408560 2.443227e-02 4.391100e-14 1 
    0.408835 2.529143e-02 4.539400e-14 1 
    0.409110 2.534666e-02 4.543200e-14 1 
    0.409385 2.602991e-02 4.659400e-14 1 
    0.409660 2.511670e-02 4.489900e-14 1 
    0.409935 2.440598e-02 4.357000e-14 1 
    0.410210 2.445108e-02 4.359200e-14 1 
    0.410485 2.366554e-02 4.213500e-14 1 
    0.410760 2.369163e-02 4.212500e-14 1 
    0.411035 2.509355e-02 4.455800e-14 1 
    0.411310 2.588392e-02 4.590000e-14 1 
    0.411585 2.324255e-02 4.116100e-14 1 
    0.411860 2.525601e-02 4.466700e-14 1 
    0.412135 2.435272e-02 4.301200e-14 1 
    0.412410 2.254324e-02 3.976300e-14 1 
    0.412685 2.190343e-02 3.858300e-14 1 
    0.412960 2.305987e-02 4.056600e-14 1 
    0.413235 2.378162e-02 4.178000e-14 1 
    0.413510 2.389593e-02 4.192500e-14 1 
    0.413785 2.359670e-02 4.134500e-14 1 
    0.414060 2.373894e-02 4.153900e-14 1 
    0.414335 2.315189e-02 4.045800e-14 1 
    0.414610 2.596973e-02 4.532200e-14 1 
    0.414885 2.506952e-02 4.369300e-14 1 
    0.415160 2.606970e-02 4.537600e-14 1 
    0.415435 2.413619e-02 4.195500e-14 1 
    0.415710 2.559560e-02 4.443300e-14 1 
    0.415985 2.658814e-02 4.609500e-14 1 
    0.416260 2.777845e-02 4.809500e-14 1 
    0.416535 2.710150e-02 4.686100e-14 1 
    0.416810 2.638389e-02 4.556000e-14 1 
    0.417085 2.617053e-02 4.513200e-14 1 
    0.417360 2.618182e-02 4.509200e-14 1 
    0.417635 2.527273e-02 4.346900e-14 1 
    0.417910 2.778371e-02 4.772500e-14 1 
    0.418185 2.837232e-02 4.867200e-14 1 
    0.418460 2.836354e-02 4.859300e-14 1 
    0.418735 2.789118e-02 4.772100e-14 1 
    0.419010 2.743564e-02 4.688000e-14 1 
    0.419285 2.637409e-02 4.500700e-14 1 
    0.419560 2.643745e-02 4.505600e-14 1 
    0.419835 2.661078e-02 4.529200e-14 1 
    0.420110 2.690039e-02 4.572500e-14 1 
    0.420385 2.509710e-02 4.260400e-14 1 
    0.420660 2.595751e-02 4.400700e-14 1 
    0.420935 2.734398e-02 4.629700e-14 1 
    0.421210 2.714730e-02 4.590400e-14 1 
    0.421485 2.670666e-02 4.510000e-14 1 
    0.421760 2.807207e-02 4.734400e-14 1 
    0.422035 2.799173e-02 4.714700e-14 1 
    0.422310 2.648197e-02 4.454600e-14 1 
    0.422585 2.534856e-02 4.258400e-14 1 
    0.422860 2.502931e-02 4.199300e-14 1 
    0.423135 2.537878e-02 4.252400e-14 1 
    0.423410 2.547632e-02 4.263200e-14 1 
    0.423685 2.810393e-02 4.696800e-14 1 
    0.423960 2.771563e-02 4.625900e-14 1 
    0.424235 2.767601e-02 4.613300e-14 1 
    0.424510 2.778158e-02 4.624900e-14 1 
    0.424785 2.662546e-02 4.426700e-14 1 
    0.425060 2.755369e-02 4.575100e-14 1 
    0.425335 2.706412e-02 4.488000e-14 1 
    0.425610 2.752119e-02 4.557900e-14 1 
    0.425885 2.682702e-02 4.437200e-14 1 
    0.426160 2.697307e-02 4.455600e-14 1 
    0.426435 2.707760e-02 4.467100e-14 1 
    0.426710 2.734681e-02 4.505700e-14 1 
    0.426985 2.721130e-02 4.477600e-14 1 
    0.427260 2.924773e-02 4.806500e-14 1 
    0.427535 2.977039e-02 4.886100e-14 1 
    0.427810 2.869654e-02 4.703800e-14 1 
    0.428085 2.883301e-02 4.720100e-14 1 
    0.428360 2.804129e-02 4.584600e-14 1 
    0.428635 2.728238e-02 4.454800e-14 1 
    0.428910 2.710216e-02 4.419700e-14 1 
    0.429185 2.708965e-02 4.412000e-14 1 
    0.429460 2.738627e-02 4.454600e-14 1 
    0.429735 2.682794e-02 4.358200e-14 1 
    0.430010 2.641851e-02 4.286200e-14 1 
    0.430285 2.722560e-02 4.411500e-14 1 
    0.430560 2.762685e-02 4.470800e-14 1 
    0.430835 2.711643e-02 4.382600e-14 1 
    0.431110 2.796883e-02 4.514600e-14 1 
    0.431385 2.707964e-02 4.365500e-14 1 
    0.431660 2.802408e-02 4.512000e-14 1 
    0.431935 2.662821e-02 4.281800e-14 1 
    0.432210 2.671817e-02 4.290800e-14 1 
    0.432485 2.646600e-02 4.244900e-14 1 
    0.432760 2.493650e-02 3.994500e-14 1 
    0.433035 2.398310e-02 3.836900e-14 1 
    0.433310 2.445354e-02 3.907200e-14 1 
    0.433585 2.539575e-02 4.052600e-14 1 
    0.433860 2.398735e-02 3.823000e-14 1 
    0.434135 2.526358e-02 4.021300e-14 1 
    0.434410 2.694682e-02 4.283800e-14 1 
    0.434685 2.828220e-02 4.490400e-14 1 
    0.434960 2.914664e-02 4.621800e-14 1 
    0.435235 2.871562e-02 4.547700e-14 1 
    0.435510 2.851167e-02 4.509700e-14 1 
    0.435785 2.806596e-02 4.433600e-14 1 
    0.436060 2.797336e-02 4.413400e-14 1 
    0.436335 2.673305e-02 4.212400e-14 1 
    0.436610 2.710035e-02 4.264900e-14 1 
    0.436885 2.825045e-02 4.440300e-14 1 
    0.437160 3.031242e-02 4.758400e-14 1 
    0.437435 3.004760e-02 4.710900e-14 1 
    0.437710 2.863888e-02 4.484400e-14 1 
    0.437985 2.732822e-02 4.273800e-14 1 
    0.438260 2.819102e-02 4.403200e-14 1 
    0.438535 2.866425e-02 4.471500e-14 1 
    0.438810 2.962318e-02 4.615300e-14 1 
    0.439085 3.162106e-02 4.920400e-14 1 
    0.439360 3.230156e-02 5.020000e-14 1 
    0.439635 3.152186e-02 4.892700e-14 1 
    0.439910 3.239280e-02 5.021600e-14 1 
    0.440185 3.202512e-02 4.958400e-14 1 
    0.440460 3.064503e-02 4.738800e-14 1 
    0.440735 3.219132e-02 4.971700e-14 1 
    0.441010 2.890443e-02 4.458500e-14 1 
    0.441285 2.962465e-02 4.563900e-14 1 
    0.441560 2.876990e-02 4.426700e-14 1 
    0.441835 2.853374e-02 4.384900e-14 1 
    0.442110 2.942734e-02 4.516600e-14 1 
    0.442385 3.096697e-02 4.747000e-14 1 
    0.442660 3.020341e-02 4.624200e-14 1 
    0.442935 3.018405e-02 4.615500e-14 1 
    0.443210 3.142896e-02 4.799900e-14 1 
    0.443485 3.213079e-02 4.901000e-14 1 
    0.443760 3.120244e-02 4.753500e-14 1 
    0.444035 3.244647e-02 4.936900e-14 1 
    0.444310 3.209185e-02 4.876900e-14 1 
    0.444585 3.198730e-02 4.855000e-14 1 
    0.444860 3.175642e-02 4.814000e-14 1 
    0.445135 3.312195e-02 5.014800e-14 1 
    0.445410 3.286596e-02 4.969900e-14 1 
    0.445685 3.246757e-02 4.903600e-14 1 
    0.445960 3.238368e-02 4.884900e-14 1 
    0.446235 3.246479e-02 4.891100e-14 1 
    0.446510 3.122286e-02 4.698200e-14 1 
    0.446785 3.240713e-02 4.870400e-14 1 
    0.447060 3.085946e-02 4.632100e-14 1 
    0.447335 3.377433e-02 5.063400e-14 1 
    0.447610 3.190248e-02 4.776900e-14 1 
    0.447885 3.258094e-02 4.872500e-14 1 
    0.448160 3.204051e-02 4.785800e-14 1 
    0.448435 3.265028e-02 4.870900e-14 1 
    0.448710 3.241585e-02 4.830000e-14 1 
    0.448985 3.086708e-02 4.593600e-14 1 
    0.449260 3.063243e-02 4.553100e-14 1 
    0.449535 3.338053e-02 4.955500e-14 1 
    0.449810 3.384156e-02 5.017800e-14 1 
    0.450085 3.097462e-02 4.587100e-14 1 
    0.450360 3.408460e-02 5.041500e-14 1 
    0.450635 3.277377e-02 4.841700e-14 1 
    0.450910 3.225940e-02 4.759900e-14 1 
    0.451185 3.299090e-02 4.861900e-14 1 
    0.451460 3.378388e-02 4.972700e-14 1 
    0.451735 3.362983e-02 4.944000e-14 1 
    0.452010 3.313004e-02 4.864600e-14 1 
    0.452285 3.369813e-02 4.942000e-14 1 
    0.452560 3.418152e-02 5.006800e-14 1 
    0.452835 3.266052e-02 4.778200e-14 1 
    0.453110 3.420306e-02 4.997800e-14 1 
    0.453385 3.521345e-02 5.139200e-14 1 
    0.453660 3.573297e-02 5.208700e-14 1 
    0.453935 3.823662e-02 5.566900e-14 1 
    0.454210 3.617245e-02 5.260000e-14 1 
    0.454485 3.653987e-02 5.307000e-14 1 
    0.454760 3.553283e-02 5.154500e-14 1 
    0.455035 3.592506e-02 5.205100e-14 1 
    0.455310 3.434735e-02 4.970500e-14 1 
    0.455585 3.527443e-02 5.098500e-14 1 
    0.455860 3.475525e-02 5.017400e-14 1 
    0.456135 3.373610e-02 4.864400e-14 1 
    0.456410 3.472877e-02 5.001500e-14 1 
    0.456685 3.462742e-02 4.980900e-14 1 
    0.456960 3.512156e-02 5.045900e-14 1 
    0.457235 3.626492e-02 5.203900e-14 1 
    0.457510 3.580131e-02 5.131200e-14 1 
    0.457785 3.503543e-02 5.015400e-14 1 
    0.458060 3.545731e-02 5.069700e-14 1 
    0.458335 3.701731e-02 5.286400e-14 1 
    0.458610 3.522912e-02 5.025000e-14 1 
    0.458885 3.436942e-02 4.896500e-14 1 
    0.459160 3.719566e-02 5.292800e-14 1 
    0.459435 3.540032e-02 5.031300e-14 1 
    0.459710 3.561177e-02 5.055300e-14 1 
    0.459985 3.653882e-02 5.180700e-14 1 
    0.460260 3.681979e-02 5.214300e-14 1 
    0.460535 3.773691e-02 5.337800e-14 1 
    0.460810 3.677689e-02 5.195800e-14 1 
    0.461085 3.730340e-02 5.263900e-14 1 
    0.461360 3.720104e-02 5.243200e-14 1 
    0.461635 3.797920e-02 5.346500e-14 1 
    0.461910 3.758849e-02 5.285200e-14 1 
    0.462185 3.776357e-02 5.303500e-14 1 
    0.462460 3.663295e-02 5.138600e-14 1 
    0.462735 3.588428e-02 5.027600e-14 1 
    0.463010 3.646217e-02 5.102500e-14 1 
    0.463285 3.619285e-02 5.058800e-14 1 
    0.463560 3.711257e-02 5.181200e-14 1 
    0.463835 3.817998e-02 5.323900e-14 1 
    0.464110 3.891167e-02 5.419500e-14 1 
    0.464385 3.911810e-02 5.441800e-14 1 
    0.464660 3.924577e-02 5.453100e-14 1 
    0.464935 3.762416e-02 5.221600e-14 1 
    0.465210 3.745010e-02 5.191300e-14 1 
    0.465485 3.521712e-02 4.876000e-14 1 
    0.465760 3.947302e-02 5.458800e-14 1 
    0.466035 3.870953e-02 5.346900e-14 1 
    0.466310 3.957209e-02 5.459600e-14 1 
    0.466585 3.720810e-02 5.127400e-14 1 
    0.466860 3.935382e-02 5.416700e-14 1 
    0.467135 3.810472e-02 5.238600e-14 1 
    0.467410 3.674920e-02 5.046300e-14 1 
    0.467685 3.718252e-02 5.099800e-14 1 
    0.467960 3.757663e-02 5.147800e-14 1 
    0.468235 3.725248e-02 5.097400e-14 1 
    0.468510 3.727943e-02 5.095100e-14 1 
    0.468785 3.868571e-02 5.281100e-14 1 
    0.469060 3.912788e-02 5.335200e-14 1 
    0.469335 3.673532e-02 5.003100e-14 1 
    0.469610 3.657329e-02 4.975200e-14 1 
    0.469885 3.691199e-02 5.015400e-14 1 
    0.470160 3.640332e-02 4.940500e-14 1 
    0.470435 3.569790e-02 4.839100e-14 1 
    0.470710 3.907646e-02 5.290900e-14 1 
    0.470985 3.768321e-02 5.096300e-14 1 
    0.471260 3.899534e-02 5.267600e-14 1 
    0.471535 3.679592e-02 4.964700e-14 1 
    0.471810 3.831991e-02 5.164300e-14 1 
    0.472085 3.828362e-02 5.153400e-14 1 
    0.472360 3.924825e-02 5.277100e-14 1 
    0.472635 3.842202e-02 5.160000e-14 1 
    0.472910 3.750955e-02 5.031600e-14 1 
    0.473185 3.777411e-02 5.061200e-14 1 
    0.473460 3.685487e-02 4.932300e-14 1 
    0.473735 3.799812e-02 5.079400e-14 1 
    0.474010 3.766777e-02 5.029400e-14 1 
    0.474285 3.806691e-02 5.076800e-14 1 
    0.474560 3.783406e-02 5.039900e-14 1 
    0.474835 4.087890e-02 5.439200e-14 1 
    0.475110 3.881946e-02 5.159200e-14 1 
    0.475385 3.885688e-02 5.158200e-14 1 
    0.475660 4.065304e-02 5.390400e-14 1 
    0.475935 3.906463e-02 5.173800e-14 1 
    0.476210 3.922393e-02 5.188900e-14 1 
    0.476485 3.890371e-02 5.140600e-14 1 
    0.476760 3.933353e-02 5.191400e-14 1 
    0.477035 3.825172e-02 5.042800e-14 1 
    0.477310 3.734353e-02 4.917400e-14 1 
    0.477585 3.890868e-02 5.117600e-14 1 
    0.477860 4.023378e-02 5.285800e-14 1 
    0.478135 3.922467e-02 5.147300e-14 1 
    0.478410 4.032569e-02 5.285700e-14 1 
    0.478685 3.929587e-02 5.144800e-14 1 
    0.478960 3.921792e-02 5.128700e-14 1 
    0.479235 3.802660e-02 4.967200e-14 1 
    0.479510 3.759430e-02 4.905100e-14 1 
    0.479785 3.908305e-02 5.093500e-14 1 
    0.480060 4.102760e-02 5.340800e-14 1 
    0.480335 4.221592e-02 5.489200e-14 1 
    0.480610 3.999060e-02 5.193900e-14 1 
    0.480885 3.972034e-02 5.152900e-14 1 
    0.481160 4.042714e-02 5.238600e-14 1 
    0.481435 3.908655e-02 5.059100e-14 1 
    0.481710 3.965254e-02 5.126500e-14 1 
    0.481985 4.108704e-02 5.305900e-14 1 
    0.482260 3.979973e-02 5.133800e-14 1 
    0.482535 3.940430e-02 5.077000e-14 1 
    0.482810 4.113457e-02 5.293900e-14 1 
    0.483085 4.048756e-02 5.204700e-14 1 
    0.483360 4.107181e-02 5.273800e-14 1 
    0.483635 4.009094e-02 5.142000e-14 1 
    0.483910 4.061347e-02 5.203100e-14 1 
    0.484185 4.052211e-02 5.185500e-14 1 
    0.484460 3.959258e-02 5.060800e-14 1 
    0.484735 4.217676e-02 5.385000e-14 1 
    0.485010 4.185923e-02 5.338400e-14 1 
    0.485285 4.120728e-02 5.249300e-14 1 
    0.485560 4.258608e-02 5.418800e-14 1 
    0.485835 4.153677e-02 5.279300e-14 1 
    0.486110 4.129394e-02 5.242500e-14 1 
    0.486385 4.049612e-02 5.135400e-14 1 
    0.486660 4.003509e-02 5.071200e-14 1 
    0.486935 4.030797e-02 5.100000e-14 1 
    0.487210 4.126265e-02 5.214900e-14 1 
    0.487485 3.982874e-02 5.028000e-14 1 
    0.487760 3.906241e-02 4.925700e-14 1 
    0.488035 4.115639e-02 5.183900e-14 1 
    0.488310 4.006778e-02 5.041100e-14 1 
    0.488585 4.031583e-02 5.066600e-14 1 
    0.488860 4.150198e-02 5.209800e-14 1 
    0.489135 4.689759e-02 5.880500e-14 1 
    0.489410 5.389648e-02 6.750500e-14 1 
    0.489685 5.537743e-02 6.928200e-14 1 
    0.489960 4.820661e-02 6.024300e-14 1 
    0.490235 4.101318e-02 5.119600e-14 1 
    0.490510 3.856258e-02 4.808300e-14 1 
    0.490785 3.817949e-02 4.755200e-14 1 
    0.491060 3.842726e-02 4.780700e-14 1 
    0.491335 3.957757e-02 4.918300e-14 1 
    0.491610 3.977818e-02 4.937700e-14 1 
    0.491885 3.907103e-02 4.844500e-14 1 
    0.492160 3.977599e-02 4.926400e-14 1 
    0.492435 3.974690e-02 4.917300e-14 1 
    0.492710 4.041845e-02 4.994800e-14 1 
    0.492985 4.277078e-02 5.279600e-14 1 
    0.493260 4.330269e-02 5.339300e-14 1 
    0.493535 4.366601e-02 5.378100e-14 1 
    0.493810 4.254422e-02 5.234100e-14 1 
    0.494085 4.209605e-02 5.173200e-14 1 
    0.494360 4.108959e-02 5.043900e-14 1 
    0.494635 4.037687e-02 4.950900e-14 1 
    0.494910 4.042912e-02 4.951800e-14 1 
    0.495185 4.149413e-02 5.076600e-14 1 
    0.495460 4.110245e-02 5.023100e-14 1 
    0.495735 4.016427e-02 4.903000e-14 1 
    0.496010 4.066645e-02 4.958800e-14 1 
    0.496285 4.201858e-02 5.118000e-14 1 
    0.496560 4.082901e-02 4.967600e-14 1 
    0.496835 4.119514e-02 5.006600e-14 1 
    0.497110 3.996563e-02 4.851800e-14 1 
    0.497385 4.172429e-02 5.059700e-14 1 
    0.497660 4.400603e-02 5.330500e-14 1 
    0.497935 4.420261e-02 5.348400e-14 1 
    0.498210 4.343235e-02 5.249400e-14 1 
    0.498485 4.410650e-02 5.325000e-14 1 
    0.498760 4.649768e-02 5.607500e-14 1 
    0.499035 4.774600e-02 5.751700e-14 1 
    0.499310 4.801304e-02 5.777500e-14 1 
    0.499585 4.877726e-02 5.863000e-14 1 
    0.499860 4.666636e-02 5.603100e-14 1 
    0.500135 4.415133e-02 5.295300e-14 1 
    0.500410 4.391944e-02 5.261700e-14 1 
    0.500685 4.293992e-02 5.138700e-14 1 
    0.500960 4.413232e-02 5.275600e-14 1 
    0.501235 4.291623e-02 5.124600e-14 1 
    0.501510 4.051444e-02 4.832500e-14 1 
    0.501785 4.164409e-02 4.961800e-14 1 
    0.502060 4.203591e-02 5.003000e-14 1 
    0.502335 4.252694e-02 5.055900e-14 1 
    0.502610 4.124391e-02 4.898000e-14 1 
    0.502885 4.278112e-02 5.075000e-14 1 
    0.503160 4.456720e-02 5.281100e-14 1 
    0.503435 4.870656e-02 5.765300e-14 1 
    0.503710 5.326846e-02 6.298400e-14 1 
    0.503985 5.903912e-02 6.973100e-14 1 
    0.504260 6.035632e-02 7.120900e-14 1 
    0.504535 5.716555e-02 6.737100e-14 1 
    0.504810 4.810061e-02 5.662600e-14 1 
    0.505085 4.385611e-02 5.157300e-14 1 
    0.505360 4.203188e-02 4.937400e-14 1 
    0.505635 4.251909e-02 4.989200e-14 1 
    0.505910 4.302093e-02 5.042600e-14 1 
    0.506185 4.335810e-02 5.076600e-14 1 
    0.506460 4.443038e-02 5.196500e-14 1 
    0.506735 4.382043e-02 5.119600e-14 1 
    0.507010 4.276436e-02 4.990800e-14 1 
    0.507285 4.095965e-02 4.775000e-14 1 
    0.507560 4.127113e-02 4.806100e-14 1 
    0.507835 4.200789e-02 4.886600e-14 1 
    0.508110 4.260331e-02 4.950500e-14 1 
    0.508385 4.362812e-02 5.064100e-14 1 
    0.508660 4.254035e-02 4.932500e-14 1 
    0.508935 4.213308e-02 4.880000e-14 1 
    0.509210 4.341978e-02 5.023600e-14 1 
    0.509485 4.471871e-02 5.168300e-14 1 
    0.509760 4.603076e-02 5.314200e-14 1 
    0.510035 4.434447e-02 5.114000e-14 1 
    0.510310 4.320654e-02 4.977400e-14 1 
    0.510585 4.214255e-02 4.849600e-14 1 
    0.510860 4.463245e-02 5.130600e-14 1 
    0.511135 4.398208e-02 5.050400e-14 1 
    0.511410 4.235033e-02 4.857800e-14 1 
    0.511685 4.248055e-02 4.867500e-14 1 
    0.511960 4.303645e-02 4.925900e-14 1 
    0.512235 4.475671e-02 5.117300e-14 1 
    0.512510 4.554462e-02 5.201800e-14 1 
    0.512785 4.546554e-02 5.187200e-14 1 
    0.513060 4.388229e-02 5.001200e-14 1 
    0.513335 4.340408e-02 4.941400e-14 1 
    0.513610 4.336266e-02 4.931400e-14 1 
    0.513885 4.243378e-02 4.820600e-14 1 
    0.514160 4.385829e-02 4.977100e-14 1 
    0.514435 4.478648e-02 5.077000e-14 1 
    0.514710 4.376760e-02 4.956200e-14 1 
    0.514985 4.405661e-02 4.983600e-14 1 
    0.515260 4.490989e-02 5.074700e-14 1 
    0.515535 4.513325e-02 5.094500e-14 1 
    0.515810 4.563283e-02 5.145400e-14 1 
    0.516085 4.395737e-02 4.951200e-14 1 
    0.516360 4.468946e-02 5.028300e-14 1 
    0.516635 4.382068e-02 4.925300e-14 1 
    0.516910 4.233987e-02 4.753800e-14 1 
    0.517185 4.226279e-02 4.740100e-14 1 
    0.517460 4.222830e-02 4.731200e-14 1 
    0.517735 4.322120e-02 4.837300e-14 1 
    0.518010 4.445495e-02 4.970100e-14 1 
    0.518285 4.376615e-02 4.887900e-14 1 
    0.518560 4.353653e-02 4.857100e-14 1 
    0.518835 4.377026e-02 4.878000e-14 1 
    0.519110 4.389482e-02 4.886700e-14 1 
    0.519385 4.476141e-02 4.977900e-14 1 
    0.519660 4.384475e-02 4.870800e-14 1 
    0.519935 4.212049e-02 4.674300e-14 1 
    0.520210 4.037808e-02 4.476200e-14 1 
    0.520485 3.922429e-02 4.343700e-14 1 
    0.520760 3.972496e-02 4.394500e-14 1 
    0.521035 4.042752e-02 4.467500e-14 1 
    0.521310 4.149385e-02 4.580500e-14 1 
    0.521585 4.251612e-02 4.688400e-14 1 
    0.521860 4.210979e-02 4.638700e-14 1 
    0.522135 4.278849e-02 4.708500e-14 1 
    0.522410 4.346946e-02 4.778400e-14 1 
    0.522685 4.429568e-02 4.864100e-14 1 
    0.522960 4.485737e-02 4.920600e-14 1 
    0.523235 4.583174e-02 5.022200e-14 1 
    0.523510 4.731328e-02 5.179100e-14 1 
    0.523785 4.619883e-02 5.051800e-14 1 
    0.524060 4.482473e-02 4.896400e-14 1 
    0.524335 4.411390e-02 4.813700e-14 1 
    0.524610 4.438220e-02 4.837900e-14 1 
    0.524885 4.498709e-02 4.898700e-14 1 
    0.525160 4.613558e-02 5.018500e-14 1 
    0.525435 4.829318e-02 5.247700e-14 1 
    0.525710 4.695175e-02 5.096600e-14 1 
    0.525985 4.510668e-02 4.891200e-14 1 
    0.526260 4.509109e-02 4.884400e-14 1 
    0.526535 4.511974e-02 4.882400e-14 1 
    0.526810 4.540649e-02 4.908300e-14 1 
    0.527085 4.580303e-02 4.946000e-14 1 
    0.527360 4.758623e-02 5.133200e-14 1 
    0.527635 4.826969e-02 5.201500e-14 1 
    0.527910 4.748024e-02 5.111100e-14 1 
    0.528185 4.702849e-02 5.057200e-14 1 
    0.528460 4.668836e-02 5.015400e-14 1 
    0.528735 4.574358e-02 4.908800e-14 1 
    0.529010 4.697869e-02 5.036100e-14 1 
    0.529285 4.741134e-02 5.077200e-14 1 
    0.529560 4.613043e-02 4.934900e-14 1 
    0.529835 4.598184e-02 4.913900e-14 1 
    0.530110 4.560994e-02 4.869100e-14 1 
    0.530385 4.474302e-02 4.771600e-14 1 
    0.530660 4.508041e-02 4.802600e-14 1 
    0.530935 4.547857e-02 4.840000e-14 1 
    0.531210 4.642775e-02 4.935900e-14 1 
    0.531485 4.876954e-02 5.179500e-14 1 
    0.531760 5.009059e-02 5.314300e-14 1 
    0.532035 5.054531e-02 5.357000e-14 1 
    0.532310 4.968517e-02 5.260400e-14 1 
    0.532585 4.948502e-02 5.233800e-14 1 
    0.532860 5.046557e-02 5.332000e-14 1 
    0.533135 5.027607e-02 5.306500e-14 1 
    0.533410 5.017905e-02 5.290800e-14 1 
    0.533685 5.060297e-02 5.330000e-14 1 
    0.533960 5.011341e-02 5.273000e-14 1 
    0.534235 5.115065e-02 5.376600e-14 1 
    0.534510 5.241184e-02 5.503500e-14 1 
    0.534785 5.285283e-02 5.544100e-14 1 
    0.535060 5.241669e-02 5.492700e-14 1 
    0.535335 5.099181e-02 5.337900e-14 1 
    0.535610 5.182452e-02 5.419500e-14 1 
    0.535885 5.103251e-02 5.331200e-14 1 
    0.536160 5.021579e-02 5.240500e-14 1 
    0.536435 4.876136e-02 5.083500e-14 1 
    0.536710 4.842537e-02 5.043300e-14 1 
    0.536985 4.949674e-02 5.149600e-14 1 
    0.537260 5.081654e-02 5.281500e-14 1 
    0.537535 5.131932e-02 5.328300e-14 1 
    0.537810 5.034215e-02 5.221500e-14 1 
    0.538085 5.114934e-02 5.299800e-14 1 
    0.538360 5.245177e-02 5.429200e-14 1 
    0.538635 5.107988e-02 5.281800e-14 1 
    0.538910 5.228987e-02 5.401400e-14 1 
    0.539185 5.333461e-02 5.503700e-14 1 
    0.539460 5.321248e-02 5.485500e-14 1 
    0.539735 5.298708e-02 5.456700e-14 1 
    0.540010 5.176092e-02 5.325000e-14 1 
    0.540285 5.090582e-02 5.231700e-14 1 
    0.540560 4.967292e-02 5.099800e-14 1 
    0.540835 5.020805e-02 5.149500e-14 1 
    0.541110 5.145473e-02 5.272000e-14 1 
    0.541385 5.310247e-02 5.435300e-14 1 
    0.541660 5.278089e-02 5.396900e-14 1 
    0.541935 5.343558e-02 5.458300e-14 1 
    0.542210 5.360547e-02 5.470100e-14 1 
    0.542485 5.251409e-02 5.353300e-14 1 
    0.542760 5.188684e-02 5.284000e-14 1 
    0.543035 5.041192e-02 5.128600e-14 1 
    0.543310 5.059091e-02 5.141600e-14 1 
    0.543585 5.072388e-02 5.149900e-14 1 
    0.543860 5.148609e-02 5.222000e-14 1 
    0.544135 5.146217e-02 5.214300e-14 1 
    0.544410 5.148258e-02 5.211100e-14 1 
    0.544685 5.280144e-02 5.339200e-14 1 
    0.544960 5.339132e-02 5.393400e-14 1 
    0.545235 5.264157e-02 5.312300e-14 1 
    0.545510 5.298433e-02 5.341500e-14 1 
    0.545785 5.323039e-02 5.360900e-14 1 
    0.546060 5.376412e-02 5.409200e-14 1 
    0.546335 5.064144e-02 5.089900e-14 1 
    0.546610 5.135175e-02 5.156100e-14 1 
    0.546885 5.294670e-02 5.310900e-14 1 
    0.547160 5.211179e-02 5.221900e-14 1 
    0.547435 5.236697e-02 5.242200e-14 1 
    0.547710 5.431151e-02 5.431400e-14 1 
    0.547985 5.489357e-02 5.484100e-14 1 
    0.548260 5.451784e-02 5.441100e-14 1 
    0.548535 5.582825e-02 5.566300e-14 1 
    0.548810 5.577080e-02 5.555000e-14 1 
    0.549085 5.452123e-02 5.425100e-14 1 
    0.549360 5.359099e-02 5.327200e-14 1 
    0.549635 5.530822e-02 5.492400e-14 1 
    0.549910 5.400177e-02 5.357300e-14 1 
    0.550185 5.429896e-02 5.381400e-14 1 
    0.550460 5.408560e-02 5.354900e-14 1 
    0.550735 5.338745e-02 5.280500e-14 1 
    0.551010 5.308960e-02 5.245800e-14 1 
    0.551285 5.219945e-02 5.152700e-14 1 
    0.551560 5.243408e-02 5.170700e-14 1 
    0.551835 5.383033e-02 5.303100e-14 1 
    0.552110 5.382913e-02 5.297700e-14 1 
    0.552385 5.517956e-02 5.425200e-14 1 
    0.552660 5.451064e-02 5.354100e-14 1 
    0.552935 5.481052e-02 5.378200e-14 1 
    0.553210 5.364292e-02 5.258400e-14 1 
    0.553485 5.432121e-02 5.319600e-14 1 
    0.553760 5.471661e-02 5.353000e-14 1 
    0.554035 5.327098e-02 5.206400e-14 1 
    0.554310 5.215219e-02 5.092000e-14 1 
    0.554585 5.282216e-02 5.152300e-14 1 
    0.554860 5.367707e-02 5.230500e-14 1 
    0.555135 5.304101e-02 5.163400e-14 1 
    0.555410 5.044578e-02 4.905900e-14 1 
    0.555685 5.421764e-02 5.267500e-14 1 
    0.555960 5.516975e-02 5.354700e-14 1 
    0.556235 5.152910e-02 4.996400e-14 1 
    0.556510 5.207353e-02 5.044200e-14 1 
    0.556785 5.281426e-02 5.110900e-14 1 
    0.557060 5.398565e-02 5.219100e-14 1 
    0.557335 5.470059e-02 5.283000e-14 1 
    0.557610 5.497638e-02 5.304400e-14 1 
    0.557885 5.621228e-02 5.418300e-14 1 
    0.558160 5.661248e-02 5.451500e-14 1 
    0.558435 5.543855e-02 5.333200e-14 1 
    0.558710 5.487302e-02 5.273600e-14 1 
    0.558985 5.479790e-02 5.261200e-14 1 
    0.559260 5.693801e-02 5.461300e-14 1 
    0.559535 5.462192e-02 5.234000e-14 1 
    0.559810 5.466310e-02 5.232800e-14 1 
    0.560085 5.287019e-02 5.056200e-14 1 
    0.560360 5.436863e-02 5.194400e-14 1 
    0.560635 5.550324e-02 5.297600e-14 1 
    0.560910 5.507319e-02 5.251400e-14 1 
    0.561185 5.564369e-02 5.300600e-14 1 
    0.561460 5.744465e-02 5.466800e-14 1 
    0.561735 5.751987e-02 5.468600e-14 1 
    0.562010 5.582005e-02 5.301800e-14 1 
    0.562285 5.583674e-02 5.298200e-14 1 
    0.562560 5.463603e-02 5.179200e-14 1 
    0.562835 5.457436e-02 5.168300e-14 1 
    0.563110 5.520058e-02 5.222500e-14 1 
    0.563385 5.716951e-02 5.403500e-14 1 
    0.563660 5.596719e-02 5.284700e-14 1 
    0.563935 5.443595e-02 5.135100e-14 1 
    0.564210 5.476281e-02 5.160900e-14 1 
    0.564485 5.701273e-02 5.367700e-14 1 
    0.564760 5.797837e-02 5.453300e-14 1 
    0.565035 5.817213e-02 5.466200e-14 1 
    0.565310 5.811266e-02 5.455300e-14 1 
    0.565585 5.674465e-02 5.321700e-14 1 
    0.565860 5.639533e-02 5.283800e-14 1 
    0.566135 5.561683e-02 5.205800e-14 1 
    0.566410 5.630503e-02 5.265100e-14 1 
    0.566685 5.774166e-02 5.394200e-14 1 
    0.566960 5.720197e-02 5.338600e-14 1 
    0.567235 5.858847e-02 5.462700e-14 1 
    0.567510 5.486315e-02 5.110400e-14 1 
    0.567785 5.763291e-02 5.363200e-14 1 
    0.568060 5.443925e-02 5.061100e-14 1 
    0.568335 5.783184e-02 5.371300e-14 1 
    0.568610 5.929748e-02 5.502100e-14 1 
    0.568885 5.873672e-02 5.444800e-14 1 
    0.569160 5.921356e-02 5.483700e-14 1 
    0.569435 5.754467e-02 5.324000e-14 1 
    0.569710 5.665360e-02 5.236500e-14 1 
    0.569985 5.708085e-02 5.270900e-14 1 
    0.570260 5.553706e-02 5.123400e-14 1 
    0.570535 5.698273e-02 5.251700e-14 1 
    0.570810 5.835944e-02 5.373400e-14 1 
    0.571085 5.763186e-02 5.301300e-14 1 
    0.571360 5.974512e-02 5.490400e-14 1 
    0.571635 5.714276e-02 5.246200e-14 1 
    0.571910 5.670386e-02 5.200900e-14 1 
    0.572185 5.854053e-02 5.364200e-14 1 
    0.572460 5.908620e-02 5.409000e-14 1 
    0.572735 5.799270e-02 5.303800e-14 1 
    0.573010 6.072438e-02 5.548300e-14 1 
    0.573285 5.840431e-02 5.331200e-14 1 
    0.573560 6.127525e-02 5.587900e-14 1 
    0.573835 5.877986e-02 5.355200e-14 1 
    0.574110 5.781774e-02 5.262500e-14 1 
    0.574385 5.813488e-02 5.286300e-14 1 
    0.574660 5.948177e-02 5.403600e-14 1 
    0.574935 5.963127e-02 5.412000e-14 1 
    0.575210 5.841449e-02 5.296500e-14 1 
    0.575485 5.896934e-02 5.341700e-14 1 
    0.575760 5.983789e-02 5.415200e-14 1 
    0.576035 6.136832e-02 5.548400e-14 1 
    0.576310 6.066524e-02 5.479600e-14 1 
    0.576585 5.972580e-02 5.389600e-14 1 
    0.576860 5.881776e-02 5.302600e-14 1 
    0.577135 6.075356e-02 5.471900e-14 1 
    0.577410 5.902332e-02 5.311000e-14 1 
    0.577685 5.964688e-02 5.362000e-14 1 
    0.577960 5.915475e-02 5.312700e-14 1 
    0.578235 5.997004e-02 5.380800e-14 1 
    0.578510 5.902754e-02 5.291200e-14 1 
    0.578785 6.019138e-02 5.390400e-14 1 
    0.579060 6.005523e-02 5.373100e-14 1 
    0.579335 5.939627e-02 5.309100e-14 1 
    0.579610 6.030486e-02 5.385200e-14 1 
    0.579885 6.275632e-02 5.598800e-14 1 
    0.580160 6.260717e-02 5.580200e-14 1 
    0.580435 6.146267e-02 5.473000e-14 1 
    0.580710 6.275067e-02 5.582400e-14 1 
    0.580985 5.915001e-02 5.257100e-14 1 
    0.581260 5.905511e-02 5.243700e-14 1 
    0.581535 5.854849e-02 5.193800e-14 1 
    0.581810 5.861178e-02 5.194500e-14 1 
    0.582085 6.090117e-02 5.392300e-14 1 
    0.582360 5.889900e-02 5.210100e-14 1 
    0.582635 5.777556e-02 5.105900e-14 1 
    0.582910 6.031507e-02 5.325300e-14 1 
    0.583185 6.103293e-02 5.383600e-14 1 
    0.583460 6.116426e-02 5.390100e-14 1 
    0.583735 6.487701e-02 5.711900e-14 1 
    0.584010 6.420030e-02 5.647000e-14 1 
    0.584285 6.158885e-02 5.412200e-14 1 
    0.584560 5.842792e-02 5.129600e-14 1 
    0.584835 6.002091e-02 5.264500e-14 1 
    0.585110 6.114437e-02 5.358000e-14 1 
    0.585385 6.372395e-02 5.578800e-14 1 
    0.585660 6.170299e-02 5.396800e-14 1 
    0.585935 6.436675e-02 5.624500e-14 1 
    0.586210 6.259099e-02 5.464200e-14 1 
    0.586485 6.354174e-02 5.542000e-14 1 
    0.586760 6.272111e-02 5.465300e-14 1 
    0.587035 6.170129e-02 5.371400e-14 1 
    0.587310 6.172692e-02 5.368600e-14 1 
    0.587585 6.226694e-02 5.410500e-14 1 
    0.587860 6.315809e-02 5.482800e-14 1 
    0.588135 6.184166e-02 5.363500e-14 1 
    0.588410 6.122782e-02 5.305300e-14 1 
    0.588685 6.222306e-02 5.386500e-14 1 
    0.588960 6.117468e-02 5.290800e-14 1 
    0.589235 6.048534e-02 5.226300e-14 1 
    0.589510 6.290960e-02 5.430700e-14 1 
    0.589785 6.143546e-02 5.298500e-14 1 
    0.590060 6.329049e-02 5.453400e-14 1 
    0.590335 5.491591e-02 4.727400e-14 1 
    0.590610 5.802391e-02 4.990300e-14 1 
    0.590885 6.225490e-02 5.349200e-14 1 
    0.591160 6.304558e-02 5.412100e-14 1 
    0.591435 6.697065e-02 5.743700e-14 1 
    0.591710 6.417363e-02 5.498700e-14 1 
    0.591985 6.191567e-02 5.300300e-14 1 
    0.592260 6.085659e-02 5.204800e-14 1 
    0.592535 5.820381e-02 4.973300e-14 1 
    0.592810 5.376549e-02 4.589800e-14 1 
    0.593085 5.307553e-02 4.526700e-14 1 
    0.593360 5.341581e-02 4.551500e-14 1 
    0.593635 5.283806e-02 4.498100e-14 1 
    0.593910 5.581468e-02 4.747100e-14 1 
    0.594185 6.048317e-02 5.139400e-14 1 
    0.594460 6.165233e-02 5.233900e-14 1 
    0.594735 6.165514e-02 5.229300e-14 1 
    0.595010 6.113509e-02 5.180400e-14 1 
    0.595285 6.048997e-02 5.121000e-14 1 
    0.595560 6.077525e-02 5.140400e-14 1 
    0.595835 6.054737e-02 5.116400e-14 1 
    0.596110 6.193345e-02 5.228700e-14 1 
    0.596385 6.283712e-02 5.300100e-14 1 
    0.596660 6.198727e-02 5.223600e-14 1 
    0.596935 6.076638e-02 5.116000e-14 1 
    0.597210 6.124919e-02 5.151900e-14 1 
    0.597485 6.331545e-02 5.320800e-14 1 
    0.597760 6.312958e-02 5.300300e-14 1 
    0.598035 6.200507e-02 5.201100e-14 1 
    0.598310 6.219814e-02 5.212500e-14 1 
    0.598585 6.163546e-02 5.160600e-14 1 
    0.598860 6.364426e-02 5.323900e-14 1 
    0.599135 6.225611e-02 5.203000e-14 1 
    0.599410 6.398518e-02 5.342600e-14 1 
    0.599685 6.269652e-02 5.230200e-14 1 
    0.599960 6.228969e-02 5.191500e-14 1 
    0.600235 6.351412e-02 5.288700e-14 1 
    0.600510 6.275375e-02 5.220600e-14 1 
    0.600785 6.297005e-02 5.233800e-14 1 
    0.601060 6.378397e-02 5.296600e-14 1 
    0.601335 6.231518e-02 5.169900e-14 1 
    0.601610 6.307434e-02 5.228100e-14 1 
    0.601885 6.224206e-02 5.154400e-14 1 
    0.602160 6.278241e-02 5.194400e-14 1 
    0.602435 6.377491e-02 5.271700e-14 1 
    0.602710 6.201443e-02 5.121500e-14 1 
    0.602985 6.184803e-02 5.103100e-14 1 
    0.603260 6.276695e-02 5.174200e-14 1 
    0.603535 6.335357e-02 5.217800e-14 1 
    0.603810 6.216322e-02 5.115100e-14 1 
    0.604085 6.088425e-02 5.005300e-14 1 
    0.604360 6.458612e-02 5.304800e-14 1 
    0.604635 6.482770e-02 5.319800e-14 1 
    0.604910 6.368160e-02 5.221000e-14 1 
    0.605185 6.311323e-02 5.169700e-14 1 
    0.605460 6.356895e-02 5.202300e-14 1 
    0.605735 6.499286e-02 5.314000e-14 1 
    0.606010 6.606182e-02 5.396500e-14 1 
    0.606285 6.501170e-02 5.305900e-14 1 
    0.606560 6.336601e-02 5.166900e-14 1 
    0.606835 6.469025e-02 5.270100e-14 1 
    0.607110 6.508431e-02 5.297400e-14 1 
    0.607385 6.627832e-02 5.389700e-14 1 
    0.607660 6.719009e-02 5.458900e-14 1 
    0.607935 6.291445e-02 5.106900e-14 1 
    0.608210 6.395783e-02 5.186900e-14 1 
    0.608485 6.056985e-02 4.907700e-14 1 
    0.608760 6.652810e-02 5.385600e-14 1 
    0.609035 6.658327e-02 5.385200e-14 1 
    0.609310 6.513115e-02 5.263000e-14 1 
    0.609585 6.765734e-02 5.462200e-14 1 
    0.609860 6.723241e-02 5.423000e-14 1 
    0.610135 6.644801e-02 5.354900e-14 1 
    0.610410 6.504361e-02 5.237000e-14 1 
    0.610685 6.456272e-02 5.193600e-14 1 
    0.610960 6.597834e-02 5.302700e-14 1 
    0.611235 6.804652e-02 5.464000e-14 1 
    0.611510 6.704326e-02 5.378600e-14 1 
    0.611785 6.698131e-02 5.368800e-14 1 
    0.612060 6.985367e-02 5.594000e-14 1 
    0.612335 6.811042e-02 5.449500e-14 1 
    0.612610 6.353051e-02 5.078500e-14 1 
    0.612885 6.594902e-02 5.267100e-14 1 
    0.613160 6.750706e-02 5.386700e-14 1 
    0.613435 6.610005e-02 5.269700e-14 1 
    0.613710 6.657112e-02 5.302500e-14 1 
    0.613985 6.657676e-02 5.298200e-14 1 
    0.614260 6.228722e-02 4.952400e-14 1 
    0.614535 6.647830e-02 5.280900e-14 1 
    0.614810 6.410985e-02 5.088200e-14 1 
    0.615085 6.749021e-02 5.351700e-14 1 
    0.615360 6.582511e-02 5.215000e-14 1 
    0.615635 6.646763e-02 5.261200e-14 1 
    0.615910 6.750826e-02 5.338800e-14 1 
    0.616185 6.506011e-02 5.140600e-14 1 
    0.616460 6.712092e-02 5.298700e-14 1 
    0.616735 6.750159e-02 5.324000e-14 1 
    0.617010 6.732703e-02 5.305500e-14 1 
    0.617285 6.764363e-02 5.325700e-14 1 
    0.617560 6.486136e-02 5.102100e-14 1 
    0.617835 6.274461e-02 4.931200e-14 1 
    0.618110 6.202998e-02 4.870700e-14 1 
    0.618385 6.650574e-02 5.217500e-14 1 
    0.618660 6.340092e-02 4.969500e-14 1 
    0.618935 6.608906e-02 5.175600e-14 1 
    0.619210 6.723032e-02 5.260300e-14 1 
    0.619485 6.270155e-02 4.901600e-14 1 
    0.619760 6.340892e-02 4.952500e-14 1 
    0.620035 6.353825e-02 4.958200e-14 1 
    0.620310 6.176946e-02 4.815900e-14 1 
    0.620585 6.380764e-02 4.970400e-14 1 
    0.620860 6.285170e-02 4.891600e-14 1 
    0.621135 6.471041e-02 5.031800e-14 1 
    0.621410 6.591459e-02 5.120900e-14 1 
    0.621685 6.525922e-02 5.065500e-14 1 
    0.621960 6.623247e-02 5.136500e-14 1 
    0.622235 6.398220e-02 4.957600e-14 1 
    0.622510 6.339419e-02 4.907700e-14 1 
    0.622785 6.277533e-02 4.855500e-14 1 
    0.623060 6.429689e-02 4.968800e-14 1 
    0.623335 6.622776e-02 5.113500e-14 1 
    0.623610 6.466454e-02 4.988400e-14 1 
    0.623885 6.374072e-02 4.912800e-14 1 
    0.624160 6.832638e-02 5.261600e-14 1 
    0.624435 6.529455e-02 5.023700e-14 1 
    0.624710 6.758308e-02 5.195200e-14 1 
    0.624985 6.955265e-02 5.341900e-14 1 
    0.625260 6.731118e-02 5.165200e-14 1 
    0.625535 6.739780e-02 5.167300e-14 1 
    0.625810 6.637484e-02 5.084400e-14 1 
    0.626085 6.508738e-02 4.981400e-14 1 
    0.626360 6.589260e-02 5.038600e-14 1 
    0.626635 6.674760e-02 5.099500e-14 1 
    0.626910 6.475727e-02 4.943100e-14 1 
    0.627185 6.599680e-02 5.033300e-14 1 
    0.627460 6.708752e-02 5.112000e-14 1 
    0.627735 6.542039e-02 4.980600e-14 1 
    0.628010 6.492820e-02 4.938800e-14 1 
    0.628285 6.567719e-02 4.991400e-14 1 
    0.628560 6.626016e-02 5.031300e-14 1 
    0.628835 6.455847e-02 4.897800e-14 1 
    0.629110 6.512946e-02 4.936800e-14 1 
    0.629385 6.618465e-02 5.012400e-14 1 
    0.629660 6.740416e-02 5.100300e-14 1 
    0.629935 6.436258e-02 4.865900e-14 1 
    0.630210 6.482257e-02 4.896400e-14 1 
    0.630485 6.691441e-02 5.050000e-14 1 
    0.630760 6.508164e-02 4.907400e-14 1 
    0.631035 6.957707e-02 5.241800e-14 1 
    0.631310 6.741380e-02 5.074400e-14 1 
    0.631585 6.971037e-02 5.242700e-14 1 
    0.631860 6.636817e-02 4.987000e-14 1 
    0.632135 6.629276e-02 4.977000e-14 1 
    0.632410 6.578653e-02 4.934700e-14 1 
    0.632685 6.725678e-02 5.040600e-14 1 
    0.632960 6.938121e-02 5.195300e-14 1 
    0.633235 6.690060e-02 5.005200e-14 1 
    0.633510 6.615873e-02 4.945400e-14 1 
    0.633785 6.748148e-02 5.039900e-14 1 
    0.634060 7.069198e-02 5.275100e-14 1 
    0.634335 7.617339e-02 5.679200e-14 1 
    0.634610 7.543264e-02 5.619100e-14 1 
    0.634885 7.463948e-02 5.555200e-14 1 
    0.635160 6.909919e-02 5.138400e-14 1 
    0.635435 6.913885e-02 5.136900e-14 1 
    0.635710 6.715652e-02 4.985300e-14 1 
    0.635985 7.076863e-02 5.248900e-14 1 
    0.636260 7.007281e-02 5.192800e-14 1 
    0.636535 6.731608e-02 4.984200e-14 1 
    0.636810 6.858543e-02 5.073800e-14 1 
    0.637085 6.944561e-02 5.133000e-14 1 
    0.637360 6.908987e-02 5.102300e-14 1 
    0.637635 7.045868e-02 5.198900e-14 1 
    0.637910 7.300581e-02 5.382200e-14 1 
    0.638185 7.004268e-02 5.159300e-14 1 
    0.638460 6.976336e-02 5.134300e-14 1 
    0.638735 6.978675e-02 5.131600e-14 1 
    0.639010 6.869127e-02 5.046700e-14 1 
    0.639285 6.880762e-02 5.050900e-14 1 
    0.639560 6.743657e-02 4.946000e-14 1 
    0.639835 6.785756e-02 4.972600e-14 1 
    0.640110 6.941010e-02 5.082000e-14 1 
    0.640385 6.917448e-02 5.060400e-14 1 
    0.640660 7.084559e-02 5.178200e-14 1 
    0.640935 6.977946e-02 5.095900e-14 1 
    0.641210 6.833865e-02 4.986400e-14 1 
    0.641485 6.962083e-02 5.075600e-14 1 
    0.641760 7.094355e-02 5.167600e-14 1 
    0.642035 7.201015e-02 5.240800e-14 1 
    0.642310 6.975463e-02 5.072300e-14 1 
    0.642585 7.039521e-02 5.114500e-14 1 
    0.642860 7.097895e-02 5.152500e-14 1 
    0.643135 6.946930e-02 5.038600e-14 1 
    0.643410 7.149649e-02 5.181200e-14 1 
    0.643685 7.064609e-02 5.115200e-14 1 
    0.643960 7.230024e-02 5.230500e-14 1 
    0.644235 7.381741e-02 5.335700e-14 1 
    0.644510 7.155286e-02 5.167600e-14 1 
    0.644785 6.991214e-02 5.044800e-14 1 
    0.645060 7.357800e-02 5.304800e-14 1 
    0.645335 7.153626e-02 5.153200e-14 1 
    0.645610 7.114290e-02 5.120500e-14 1 
    0.645885 7.169440e-02 5.155800e-14 1 
    0.646160 7.242489e-02 5.203900e-14 1 
    0.646435 6.809883e-02 4.888900e-14 1 
    0.646710 7.050725e-02 5.057500e-14 1 
    0.646985 6.702736e-02 4.803800e-14 1 
    0.647260 7.177095e-02 5.139400e-14 1 
    0.647535 7.081025e-02 5.066300e-14 1 
    0.647810 7.044376e-02 5.035800e-14 1 
    0.648085 7.177062e-02 5.126300e-14 1 
    0.648360 7.219727e-02 5.152400e-14 1 
    0.648635 7.113518e-02 5.072300e-14 1 
    0.648910 6.994489e-02 4.983200e-14 1 
    0.649185 7.235443e-02 5.150500e-14 1 
    0.649460 7.411699e-02 5.271500e-14 1 
    0.649735 7.420651e-02 5.273400e-14 1 
    0.650010 7.161877e-02 5.085200e-14 1 
    0.650285 7.051367e-02 5.002500e-14 1 
    0.650560 7.197844e-02 5.102100e-14 1 
    0.650835 7.160725e-02 5.071500e-14 1 
    0.651110 7.209596e-02 5.101800e-14 1 
    0.651385 7.375508e-02 5.214800e-14 1 
    0.651660 7.438216e-02 5.254700e-14 1 
    0.651935 7.534033e-02 5.317900e-14 1 
    0.652210 7.508203e-02 5.295200e-14 1 
    0.652485 7.343106e-02 5.174400e-14 1 
    0.652760 7.141363e-02 5.028000e-14 1 
    0.653035 7.200972e-02 5.065700e-14 1 
    0.653310 7.450322e-02 5.236700e-14 1 
    0.653585 7.119271e-02 4.999800e-14 1 
    0.653860 6.821145e-02 4.786400e-14 1 
    0.654135 6.916742e-02 4.849400e-14 1 
    0.654410 7.081440e-02 4.960700e-14 1 
    0.654685 7.086536e-02 4.960100e-14 1 
    0.654960 7.088201e-02 4.957100e-14 1 
    0.655235 7.174440e-02 5.013200e-14 1 
    0.655510 7.374398e-02 5.148600e-14 1 
    0.655785 7.106356e-02 4.957300e-14 1 
    0.656060 7.284769e-02 5.077500e-14 1 
    0.656335 7.441219e-02 5.182200e-14 1 
    0.656610 7.715191e-02 5.368500e-14 1 
    0.656885 6.992136e-02 4.861300e-14 1 
    0.657160 7.139353e-02 4.959500e-14 1 
    0.657435 7.373831e-02 5.118100e-14 1 
    0.657710 7.236816e-02 5.018800e-14 1 
    0.657985 7.590234e-02 5.259500e-14 1 
    0.658260 7.601636e-02 5.263000e-14 1 
    0.658535 8.019684e-02 5.547800e-14 1 
    0.658810 8.635329e-02 5.968700e-14 1 
    0.659085 1.056357e-01 7.295400e-14 1 
    0.659360 1.127684e-01 7.781500e-14 1 
    0.659635 1.075598e-01 7.415900e-14 1 
    0.659910 1.020376e-01 7.029300e-14 1 
    0.660185 1.301344e-01 8.957400e-14 1 
    0.660460 2.109499e-01 1.450800e-13 1 
    0.660735 2.761165e-01 1.897400e-13 1 
    0.661010 2.650152e-01 1.819600e-13 1 
    0.661285 1.856767e-01 1.273800e-13 1 
    0.661560 1.168571e-01 8.010100e-14 1 
    0.661835 9.207444e-02 6.306100e-14 1 
    0.662110 1.015106e-01 6.946600e-14 1 
    0.662385 1.305439e-01 8.926000e-14 1 
    0.662660 1.757059e-01 1.200400e-13 1 
    0.662935 1.924935e-01 1.314000e-13 1 
    0.663210 1.615120e-01 1.101600e-13 1 
    0.663485 1.202660e-01 8.196000e-14 1 
    0.663760 9.141686e-02 6.224800e-14 1 
    0.664035 8.110990e-02 5.518400e-14 1 
    0.664310 8.076815e-02 5.490600e-14 1 
    0.664585 7.972349e-02 5.415100e-14 1 
    0.664860 7.581555e-02 5.145400e-14 1 
    0.665135 7.802837e-02 5.291200e-14 1 
    0.665410 7.827002e-02 5.303200e-14 1 
    0.665685 7.677192e-02 5.197400e-14 1 
    0.665960 7.719756e-02 5.221900e-14 1 
    0.666235 7.761495e-02 5.245800e-14 1 
    0.666510 7.842091e-02 5.295900e-14 1 
    0.666785 7.647011e-02 5.159900e-14 1 
    0.667060 7.660884e-02 5.165000e-14 1 
    0.667335 7.521576e-02 5.066900e-14 1 
    0.667610 7.883151e-02 5.306100e-14 1 
    0.667885 7.603864e-02 5.113900e-14 1 
    0.668160 7.748970e-02 5.207200e-14 1 
    0.668435 7.618330e-02 5.115200e-14 1 
    0.668710 7.694209e-02 5.161900e-14 1 
    0.668985 7.637137e-02 5.119400e-14 1 
    0.669260 7.531440e-02 5.044400e-14 1 
    0.669535 7.519700e-02 5.032400e-14 1 
    0.669810 7.380367e-02 4.935100e-14 1 
    0.670085 7.533555e-02 5.033400e-14 1 
    0.670360 7.423949e-02 4.956100e-14 1 
    0.670635 7.662713e-02 5.111300e-14 1 
    0.670910 7.590678e-02 5.059100e-14 1 
    0.671185 7.541791e-02 5.022400e-14 1 
    0.671460 7.673312e-02 5.105800e-14 1 
    0.671735 7.573560e-02 5.035300e-14 1 
    0.672010 7.829345e-02 5.201100e-14 1 
    0.672285 7.698808e-02 5.110200e-14 1 
    0.672560 7.702092e-02 5.108200e-14 1 
    0.672835 7.830171e-02 5.188900e-14 1 
    0.673110 7.804857e-02 5.167900e-14 1 
    0.673385 7.709361e-02 5.100500e-14 1 
    0.673660 7.809902e-02 5.162800e-14 1 
    0.673935 7.735434e-02 5.109400e-14 1 
    0.674210 7.982665e-02 5.268400e-14 1 
    0.674485 7.890913e-02 5.203600e-14 1 
    0.674760 8.074158e-02 5.320100e-14 1 
    0.675035 8.145901e-02 5.363000e-14 1 
    0.675310 8.132169e-02 5.349600e-14 1 
    0.675585 8.764083e-02 5.760600e-14 1 
    0.675860 1.023218e-01 6.720100e-14 1 
    0.676135 1.137670e-01 7.465700e-14 1 
    0.676410 1.188466e-01 7.792700e-14 1 
    0.676685 1.027060e-01 6.728900e-14 1 
    0.676960 9.448253e-02 6.185100e-14 1 
    0.677235 9.212694e-02 6.026000e-14 1 
    0.677510 1.032642e-01 6.749000e-14 1 
    0.677785 1.088087e-01 7.105600e-14 1 
    0.678060 9.851853e-02 6.428400e-14 1 
    0.678335 8.584189e-02 5.596700e-14 1 
    0.678610 7.541337e-02 4.912800e-14 1 
    0.678885 7.729961e-02 5.031600e-14 1 
    0.679160 7.283730e-02 4.737300e-14 1 
    0.679435 7.425965e-02 4.825900e-14 1 
    0.679710 7.464626e-02 4.847100e-14 1 
    0.679985 7.603216e-02 4.933100e-14 1 
    0.680260 7.269243e-02 4.712600e-14 1 
    0.680535 7.408194e-02 4.798800e-14 1 
    0.680810 7.916619e-02 5.124000e-14 1 
    0.681085 7.823592e-02 5.059700e-14 1 
    0.681360 7.599177e-02 4.910600e-14 1 
    0.681635 7.439596e-02 4.803600e-14 1 
    0.681910 7.850152e-02 5.064600e-14 1 
    0.682185 8.306038e-02 5.354400e-14 1 
    0.682460 8.420790e-02 5.424000e-14 1 
    0.682735 8.695445e-02 5.596400e-14 1 
    0.683912 7.772052e-02 4.984900e-14 0 
    0.685488 7.844250e-02 5.008100e-14 0 
    0.687068 7.862673e-02 4.996800e-14 0 
    0.688652 7.990813e-02 5.054900e-14 0 
    0.690240 7.899706e-02 4.974300e-14 0 
    0.691831 7.809489e-02 4.894900e-14 0 
    0.693426 7.809957e-02 4.872700e-14 0 
    0.695024 7.918938e-02 4.918000e-14 0 
    0.696626 8.010969e-02 4.952300e-14 0 
    0.698233 8.085349e-02 4.975300e-14 0 
    0.699842 8.179306e-02 5.010000e-14 0 
    0.701455 8.217545e-02 5.010300e-14 0 
    0.703072 7.793955e-02 4.730200e-14 0 
    0.704693 8.275213e-02 4.999200e-14 0 
    0.706318 8.256549e-02 4.965000e-14 0 
    0.707946 8.200096e-02 4.908400e-14 0 
    0.709578 8.626481e-02 5.139900e-14 0 
    0.711214 8.238547e-02 4.886200e-14 0 
    0.712853 8.392083e-02 4.954400e-14 0 
    0.714496 8.051677e-02 4.731600e-14 0 
    0.716143 8.201841e-02 4.797700e-14 0 
    0.717794 8.202090e-02 4.775800e-14 0 
    0.719449 8.202517e-02 4.754100e-14 0 
    0.721108 8.297935e-02 4.787300e-14 0 
    0.722770 8.222173e-02 4.721800e-14 0 
    0.724436 7.906925e-02 4.519900e-14 0 
    0.726106 7.871015e-02 4.478700e-14 0 
    0.727780 8.337613e-02 4.722400e-14 0 
    0.729457 8.434613e-02 4.755400e-14 0 
    0.731139 8.731395e-02 4.900100e-14 0 
    0.732825 8.493885e-02 4.744900e-14 0 
    0.734514 8.205780e-02 4.562900e-14 0 
    0.736207 8.652499e-02 4.789200e-14 0 
    0.737904 8.813859e-02 4.856100e-14 0 
    0.739605 9.187125e-02 5.038500e-14 0 
    0.741310 8.834963e-02 4.823100e-14 0 
    0.743019 9.103753e-02 4.947000e-14 0 
    0.744732 9.041508e-02 4.890600e-14 0 
    0.746449 8.979797e-02 4.834900e-14 0 
    0.748170 9.274264e-02 4.970500e-14 0 
    0.749894 9.168595e-02 4.891300e-14 0 
    0.751623 9.275138e-02 4.925400e-14 0 
    0.753356 9.383037e-02 4.959800e-14 0 
    0.755092 9.044130e-02 4.758700e-14 0 
    0.756833 9.255242e-02 4.847400e-14 0 
    0.758578 9.602952e-02 5.006400e-14 0 
    0.760326 9.581356e-02 4.972200e-14 0 
    0.762079 9.648239e-02 4.983900e-14 0 
    0.763836 9.693168e-02 4.984100e-14 0 
    0.765597 9.451098e-02 4.837300e-14 0 
    0.767361 9.671745e-02 4.927500e-14 0 
    0.769130 9.495737e-02 4.815600e-14 0 
    0.770904 9.583965e-02 4.838000e-14 0 
    0.772681 8.483284e-02 4.262700e-14 0 
    0.774462 9.409928e-02 4.706600e-14 0 
    0.776247 9.302714e-02 4.631600e-14 0 
    0.778037 9.519804e-02 4.717900e-14 0 
    0.779830 9.630626e-02 4.750900e-14 0 
    0.781628 9.542716e-02 4.685900e-14 0 
    0.783430 9.412254e-02 4.600600e-14 0 
    0.785236 9.676439e-02 4.708000e-14 0 
    0.787046 9.654614e-02 4.675800e-14 0 
    0.788860 9.699585e-02 4.676000e-14 0 
    0.790679 9.903162e-02 4.752200e-14 0 
    0.792501 9.972301e-02 4.763400e-14 0 
    0.794328 9.881417e-02 4.698300e-14 0 
    0.796159 9.836382e-02 4.655400e-14 0 
    0.797995 9.568922e-02 4.508000e-14 0 
    0.799834 9.503468e-02 4.456600e-14 0 
    0.801678 9.747643e-02 4.550100e-14 0 
    0.803526 9.998383e-02 4.645700e-14 0 
    0.805378 9.884313e-02 4.571600e-14 0 
    0.807235 1.006853e-01 4.635400e-14 0 
    0.809096 1.018571e-01 4.667800e-14 0 
    0.810961 1.004638e-01 4.582800e-14 0 
    0.812831 1.021015e-01 4.636100e-14 0 
    0.814704 1.009376e-01 4.562200e-14 0 
    0.816582 1.032949e-01 4.647300e-14 0 
    0.818465 1.054622e-01 4.723000e-14 0 
    0.820352 1.030665e-01 4.594500e-14 0 
    0.822243 1.011917e-01 4.490200e-14 0 
    0.824138 9.980894e-02 4.408500e-14 0 
    0.826038 9.799067e-02 4.308300e-14 0 
    0.827942 1.072035e-01 4.691700e-14 0 
    0.829851 1.054947e-01 4.595700e-14 0 
    0.831764 1.064774e-01 4.617200e-14 0 
    0.833681 1.042976e-01 4.501900e-14 0 
    0.835603 1.047837e-01 4.502100e-14 0 
    0.837529 1.060039e-01 4.533600e-14 0 
    0.839460 1.038342e-01 4.420400e-14 0 
    0.841395 1.082354e-01 4.586600e-14 0 
    0.843335 1.102524e-01 4.650600e-14 0 
    0.845279 1.028994e-01 4.320500e-14 0 
    0.847227 1.105187e-01 4.619100e-14 0 
    0.849180 1.070170e-01 4.452200e-14 0 
    0.851138 1.055551e-01 4.371200e-14 0 
    0.853100 1.048342e-01 4.321400e-14 0 
    0.855067 1.105410e-01 4.535700e-14 0 
    0.857038 1.082796e-01 4.422500e-14 0 
    0.859014 1.085360e-01 4.412600e-14 0 
    0.860994 8.904131e-02 3.603400e-14 0 
    0.862979 1.110744e-01 4.474400e-14 0 
    0.864968 1.093051e-01 4.382900e-14 0 
    0.866962 1.093111e-01 4.363000e-14 0 
    0.868960 1.113483e-01 4.423900e-14 0 
    0.870964 1.105881e-01 4.373500e-14 0 
    0.872971 7.374378e-02 2.903000e-14 0 
    0.874984 1.080819e-01 4.235200e-14 0 
    0.877001 1.100985e-01 4.294400e-14 0 
    0.879023 1.142358e-01 4.435300e-14 0 
    0.881049 1.121574e-01 4.334600e-14 0 
    0.883080 1.111336e-01 4.275300e-14 0 
    0.885116 1.147830e-01 4.395400e-14 0 
    0.887156 1.076206e-01 4.102200e-14 0 
    0.889201 1.088738e-01 4.130900e-14 0 
    0.891251 1.142721e-01 4.315800e-14 0 
    0.893305 1.061624e-01 3.991100e-14 0 
    0.895365 1.127187e-01 4.218100e-14 0 
    0.897429 1.145544e-01 4.267100e-14 0 
    0.899498 1.114396e-01 4.132000e-14 0 
    0.901571 1.109324e-01 4.094300e-14 0 
    0.903650 1.119672e-01 4.113500e-14 0 
    0.905733 9.933646e-02 3.632700e-14 0 
    0.907820 1.069373e-01 3.892700e-14 0 
    0.909913 1.169937e-01 4.239200e-14 0 
    0.912011 1.225133e-01 4.418800e-14 0 
    0.914113 1.127729e-01 4.048800e-14 0 
    0.916220 1.156719e-01 4.133800e-14 0 
    0.918333 1.216905e-01 4.328900e-14 0 
    0.920450 1.094675e-01 3.876200e-14 0 
    0.922571 1.072263e-01 3.779400e-14 0 
    0.924698 1.133277e-01 3.976100e-14 0 
    0.926830 1.186728e-01 4.144500e-14 0 
    0.928966 1.162460e-01 4.041100e-14 0 
    0.931108 1.167885e-01 4.041300e-14 0 
    0.933254 1.200681e-01 4.135700e-14 0 
    0.935406 1.228711e-01 4.212800e-14 0 
    0.937562 1.234470e-01 4.213100e-14 0 
    0.939723 1.240226e-01 4.213300e-14 0 
    0.941890 1.243173e-01 4.203900e-14 0 
    0.944061 1.234680e-01 4.156000e-14 0 
    0.946237 1.251929e-01 4.194700e-14 0 
    0.948418 1.257766e-01 4.194900e-14 0 
    0.950605 1.252067e-01 4.156700e-14 0 
    0.952796 1.272492e-01 4.205100e-14 0 
    0.954993 1.275509e-01 4.195700e-14 0 
    0.957194 1.263896e-01 4.138400e-14 0 
    0.959401 1.263962e-01 4.119600e-14 0 
    0.961612 1.226766e-01 3.980000e-14 0 
    0.963829 1.269928e-01 4.101100e-14 0 
    0.966051 1.293615e-01 4.158400e-14 0 
    0.968278 1.287773e-01 4.120600e-14 0 
    0.970510 1.281912e-01 4.083000e-14 0 
    0.972747 1.284958e-01 4.073900e-14 0 
    0.974990 1.302900e-01 4.111800e-14 0 
    0.977237 1.294014e-01 4.065000e-14 0 
    0.979490 1.291129e-01 4.037300e-14 0 
    0.981748 1.291178e-01 4.018900e-14 0 
    0.984011 1.297234e-01 4.019200e-14 0 
    0.986279 1.291353e-01 3.982600e-14 0 
    0.988553 1.315426e-01 4.038200e-14 0 
    0.990832 1.312499e-01 4.010700e-14 0 
    0.993116 1.309549e-01 3.983300e-14 0 
    0.995405 1.312653e-01 3.974400e-14 0 
    0.997700 1.312741e-01 3.956400e-14 0 
    1.000000 1.324967e-01 3.974900e-14 0 
    1.002305 1.331149e-01 3.975100e-14 0 
    1.004615 1.334298e-01 3.966200e-14 0 
    1.009253 1.328345e-01 3.912300e-14 0 
    1.013912 1.319358e-01 3.850200e-14 0 
    1.018591 1.347160e-01 3.895300e-14 0 
    1.023294 1.347308e-01 3.860000e-14 0 
    1.030386 1.366331e-01 3.860800e-14 0 
    1.035142 1.375973e-01 3.852400e-14 0 
    1.037528 1.372887e-01 3.826100e-14 0 
    1.056818 1.379923e-01 3.706600e-14 0 
    1.076465 1.374078e-01 3.557400e-14 0 
    1.096478 1.370902e-01 3.420800e-14 0 
    1.116863 1.380395e-01 3.319900e-14 0 
    1.137628 1.389968e-01 3.222000e-14 0 
    1.158778 1.425660e-01 3.185200e-14 0 
    1.177606 1.428913e-01 3.091200e-14 0 
    1.196741 1.425649e-01 2.986300e-14 0 
    1.218990 1.442151e-01 2.911600e-14 0 
    1.238796 1.462182e-01 2.858400e-14 0 
    1.258925 1.468931e-01 2.780500e-14 0 
    1.279381 1.482573e-01 2.717300e-14 0 
    1.297179 1.485969e-01 2.649300e-14 0 
    1.318256 1.503196e-01 2.595000e-14 0 
    1.339676 1.510087e-01 2.524200e-14 0 
    1.358313 1.524105e-01 2.478200e-14 0 
    1.380384 1.541708e-01 2.427300e-14 0 
    1.399587 1.538215e-01 2.355800e-14 0 
    1.419057 1.531101e-01 2.281000e-14 0 
    1.438799 1.545292e-01 2.239400e-14 0 
    1.458814 1.588584e-01 2.239400e-14 0 
    1.479109 1.584962e-01 2.173400e-14 0 
    1.499685 1.636862e-01 2.183400e-14 0 
    1.520548 1.675015e-01 2.173400e-14 0 
    1.541701 1.733827e-01 2.188400e-14 0 
    1.559552 1.757996e-01 2.168400e-14 0 
    1.581248 1.774245e-01 2.128800e-14 0 
    1.599558 1.757919e-01 2.061200e-14 0 
    1.621810 1.815586e-01 2.070800e-14 0 
    1.640590 1.845048e-01 2.056500e-14 0 
    1.659586 1.849279e-01 2.014300e-14 0 
    1.682673 1.875040e-01 1.986700e-14 0 
    1.702158 1.875063e-01 1.941500e-14 0 
    1.721869 1.875059e-01 1.897300e-14 0 
    1.741808 1.840765e-01 1.820200e-14 0 
    1.761975 1.832309e-01 1.770600e-14 0 
    1.782379 1.807218e-01 1.706600e-14 0 
    1.803018 1.790690e-01 1.652500e-14 0 
    1.823896 1.749901e-01 1.578100e-14 0 
    1.840771 1.741883e-01 1.542200e-14 0 
    1.862087 1.729870e-01 1.496700e-14 0 
    1.883649 1.698255e-01 1.435900e-14 0 
    1.901077 1.686577e-01 1.400000e-14 0 
    1.923091 1.694428e-01 1.374500e-14 0 
    1.940886 1.667291e-01 1.327800e-14 0 
    1.963361 1.636871e-01 1.273900e-14 0 
    1.981527 1.621885e-01 1.239200e-14 0 
    2.004472 1.614396e-01 1.205400e-14 0 
    2.023020 1.614398e-01 1.183400e-14 0 
    2.041738 1.592302e-01 1.145900e-14 0 
    2.065380 1.603228e-01 1.127500e-14 0 
    2.084490 1.592189e-01 1.099300e-14 0 
    2.103778 1.581220e-01 1.071800e-14 0 
    2.123245 1.581315e-01 1.052300e-14 0 
    2.142890 1.573977e-01 1.028300e-14 0 
    2.162719 1.566757e-01 1.004900e-14 0 
    2.182731 1.541732e-01 9.708000e-15 0 
    2.202926 1.545287e-01 9.552800e-15 0 
    2.223311 1.531129e-01 9.292500e-15 0 
    2.243881 1.520571e-01 9.060000e-15 0 
    2.264644 1.510103e-01 8.833400e-15 0 
    2.285600 1.499714e-01 8.612500e-15 0 
    2.306747 1.377061e-01 7.763800e-15 0 
    2.322738 1.371042e-01 7.623800e-15 0 
    2.344228 1.217195e-01 6.644800e-15 0 
    2.365920 1.160135e-01 6.217700e-15 0 
    2.387810 1.176210e-01 6.188800e-15 0 
    2.404363 1.086667e-01 5.639200e-15 0 
    2.426611 1.056190e-01 5.381000e-15 0 
    2.443431 1.044971e-01 5.250800e-15 0 
    2.466040 9.803953e-02 4.836400e-15 0 
    2.488857 9.671331e-02 4.683900e-15 0 
    2.506110 8.441319e-02 4.032100e-15 0 
    2.529297 8.338724e-02 3.910400e-15 0 
    2.546831 8.331282e-02 3.853300e-15 0 
    2.555150 7.857618e-02 3.610600e-15 2 
    2.564830 7.891393e-02 3.598800e-15 2 
    2.574500 8.023034e-02 3.631400e-15 2 
    2.584180 8.113309e-02 3.644800e-15 2 
    2.593850 8.376656e-02 3.735100e-15 2 
    2.603530 8.307116e-02 3.676600e-15 2 
    2.613210 8.343736e-02 3.665500e-15 2 
    2.622880 8.270534e-02 3.606600e-15 2 
    2.632560 8.497559e-02 3.678400e-15 2 
    2.642240 8.654416e-02 3.718900e-15 2 
    2.651910 8.838370e-02 3.770300e-15 2 
    2.661590 8.698519e-02 3.683700e-15 2 
    2.671260 8.602477e-02 3.616700e-15 2 
    2.680940 8.398762e-02 3.505600e-15 2 
    2.690620 8.564011e-02 3.548900e-15 2 
    2.700290 8.592138e-02 3.535100e-15 2 
    2.709970 8.559603e-02 3.496600e-15 2 
    2.719650 8.635902e-02 3.502700e-15 2 
    2.729320 8.635346e-02 3.477700e-15 2 
    2.739000 8.665450e-02 3.465200e-15 2 
    2.748670 8.488252e-02 3.370500e-15 2 
    2.758350 8.437060e-02 3.326700e-15 2 
    2.768030 8.372512e-02 3.278200e-15 2 
    2.777700 8.266512e-02 3.214200e-15 2 
    2.787380 8.055405e-02 3.110400e-15 2 
    2.797060 7.779472e-02 2.983100e-15 2 
    2.806730 8.035551e-02 3.060100e-15 2 
    2.816410 8.693389e-02 3.287900e-15 2 
    2.826080 8.846100e-02 3.322800e-15 2 
    2.835760 8.519738e-02 3.178400e-15 2 
    2.845440 8.155094e-02 3.021700e-15 2 
    2.855110 8.092961e-02 2.978400e-15 2 
    2.864790 8.119480e-02 2.968000e-15 2 
    2.874470 7.829343e-02 2.842700e-15 2 
    2.884140 7.685521e-02 2.771800e-15 2 
    2.893820 7.715982e-02 2.764200e-15 2 
    2.903490 7.936522e-02 2.824300e-15 2 
    2.913170 7.974537e-02 2.819000e-15 2 
    2.922850 7.787277e-02 2.734600e-15 2 
    2.932520 7.632210e-02 2.662500e-15 2 
    2.942200 7.723366e-02 2.676600e-15 2 
    2.951880 7.697300e-02 2.650100e-15 2 
    2.961550 7.710683e-02 2.637400e-15 2 
    2.971230 7.515454e-02 2.553900e-15 2 
    2.980900 7.517653e-02 2.538100e-15 2 
    2.990580 7.556720e-02 2.534800e-15 2 
    3.000260 7.808853e-02 2.602500e-15 2 
    3.009930 7.909402e-02 2.619100e-15 2 
    3.019610 7.990446e-02 2.629000e-15 2 
    3.029290 7.938369e-02 2.595200e-15 2 
    3.038960 7.765945e-02 2.522700e-15 2 
    3.048640 7.515296e-02 2.425800e-15 2 
    3.058310 7.394376e-02 2.371700e-15 2 
    3.067990 7.254576e-02 2.312200e-15 2 
    3.077670 7.103092e-02 2.249700e-15 2 
    3.087340 7.252329e-02 2.282600e-15 2 
    3.097020 7.634860e-02 2.388000e-15 2 
    3.106700 7.591937e-02 2.359800e-15 2 
    3.116370 7.752252e-02 2.394700e-15 2 
    3.126050 7.714492e-02 2.368300e-15 2 
    3.135720 8.068746e-02 2.461800e-15 2 
    3.145400 8.092257e-02 2.453800e-15 2 
    3.155080 8.205187e-02 2.472800e-15 2 
    3.164750 8.416145e-02 2.520900e-15 2 
    3.174430 8.569150e-02 2.551100e-15 2 
    3.184110 8.526187e-02 2.522900e-15 2 
    3.193780 8.053082e-02 2.368500e-15 2 
    3.203460 8.104709e-02 2.369300e-15 2 
    3.213130 8.076970e-02 2.347000e-15 2 
    3.222810 8.104935e-02 2.341000e-15 2 
    3.232490 8.621811e-02 2.475400e-15 2 
    3.242160 8.987419e-02 2.565000e-15 2 
    3.251840 9.605138e-02 2.725000e-15 2 
    3.261520 9.882604e-02 2.787100e-15 2 
    3.271190 1.032545e-01 2.894800e-15 2 
    3.280870 1.119611e-01 3.120400e-15 2 
    3.290540 1.288743e-01 3.570700e-15 2 
    3.300220 1.518160e-01 4.181700e-15 2 
    3.309900 1.676365e-01 4.590500e-15 2 
    3.319570 1.756589e-01 4.782200e-15 2 
    3.329250 1.642302e-01 4.445100e-15 2 
    3.338930 1.473008e-01 3.963800e-15 2 
    3.348600 1.251123e-01 3.347300e-15 2 
    3.358280 1.044723e-01 2.779000e-15 2 
    3.367950 9.772070e-02 2.584500e-15 2 
    3.377630 9.113398e-02 2.396500e-15 2 
    3.387310 9.236465e-02 2.415000e-15 2 
    3.396980 8.865778e-02 2.304900e-15 2 
    3.406660 9.454091e-02 2.443900e-15 2 
    3.416340 9.584925e-02 2.463700e-15 2 
    3.426010 1.001447e-01 2.559600e-15 2 
    3.435690 1.007114e-01 2.559600e-15 2 
    3.445360 9.919392e-02 2.506900e-15 2 
    3.455040 9.907561e-02 2.489900e-15 2 
    3.464720 9.900733e-02 2.474300e-15 2 
    3.474390 9.829728e-02 2.442900e-15 2 
    3.484070 9.598105e-02 2.372100e-15 2 
    3.493750 9.561186e-02 2.349900e-15 2 
    3.503420 9.682512e-02 2.366600e-15 2 
    3.513100 9.380645e-02 2.280200e-15 2 
    3.522770 9.247036e-02 2.235400e-15 2 
    3.532450 8.695643e-02 2.090600e-15 2 
    3.542130 8.798990e-02 2.103900e-15 2 
    3.551800 8.872329e-02 2.109900e-15 2 
    3.561480 9.091992e-02 2.150400e-15 2 
    3.571160 8.933606e-02 2.101500e-15 2 
    3.580830 8.867079e-02 2.074600e-15 2 
    3.590510 8.234829e-02 1.916300e-15 2 
    3.600180 7.850225e-02 1.817000e-15 2 
    3.609860 7.830382e-02 1.802700e-15 2 
    3.619540 7.774174e-02 1.780200e-15 2 
    3.629210 7.455319e-02 1.698100e-15 2 
    3.638890 7.635943e-02 1.730000e-15 2 
    3.648570 7.741852e-02 1.744700e-15 2 
    3.658240 7.839597e-02 1.757400e-15 2 
    3.667920 7.421923e-02 1.655000e-15 2 
    3.677590 7.408362e-02 1.643300e-15 2 
    3.687270 7.668574e-02 1.692100e-15 2 
    3.696950 7.687479e-02 1.687400e-15 2 
    3.706620 7.625162e-02 1.665000e-15 2 
    3.716300 7.740541e-02 1.681400e-15 2 
    3.725980 7.601828e-02 1.642700e-15 2 
    3.735650 7.616683e-02 1.637400e-15 2 
    3.745330 7.774507e-02 1.662700e-15 2 
    3.755000 7.963224e-02 1.694300e-15 2 
    3.764680 7.865441e-02 1.664900e-15 2 
    3.774360 7.308093e-02 1.539000e-15 2 
    3.784030 7.228649e-02 1.514500e-15 2 
    3.793710 7.501714e-02 1.563700e-15 2 
    3.803390 7.295572e-02 1.513000e-15 2 
    3.813060 7.348712e-02 1.516300e-15 2 
    3.822740 7.599911e-02 1.560200e-15 2 
    3.832410 7.979158e-02 1.629800e-15 2 
    3.842090 7.858612e-02 1.597100e-15 2 
    3.851770 7.860183e-02 1.589400e-15 2 
    3.861440 7.614903e-02 1.532100e-15 2 
    3.871120 7.422852e-02 1.486000e-15 2 
    3.880800 7.332006e-02 1.460500e-15 2 
    3.890470 7.493208e-02 1.485200e-15 2 
    3.900150 7.296291e-02 1.439000e-15 2 
    3.909820 7.517995e-02 1.475400e-15 2 
    3.919500 7.090297e-02 1.384600e-15 2 
    3.929180 7.278717e-02 1.414400e-15 2 
    3.938850 7.204434e-02 1.393100e-15 2 
    3.948530 7.424901e-02 1.428700e-15 2 
    3.958210 7.850948e-02 1.503300e-15 2 
    3.967880 7.802238e-02 1.486700e-15 2 
    3.977560 7.537117e-02 1.429200e-15 2 
    3.987230 7.286055e-02 1.374900e-15 2 
    3.996910 6.982267e-02 1.311200e-15 2 
    4.006590 6.812792e-02 1.273200e-15 2 
    4.016260 6.615593e-02 1.230400e-15 2 
    4.025940 6.970063e-02 1.290100e-15 2 
    4.035620 7.421634e-02 1.367100e-15 2 
    4.045290 7.613251e-02 1.395700e-15 2 
    4.054970 7.697961e-02 1.404500e-15 2 
    4.064640 8.104798e-02 1.471700e-15 2 
    4.074320 8.521929e-02 1.540100e-15 2 
    4.084000 9.092865e-02 1.635500e-15 2 
    4.093670 8.461182e-02 1.514700e-15 2 
    4.103350 7.854123e-02 1.399400e-15 2 
    4.113030 6.856467e-02 1.215900e-15 2 
    4.122700 6.725577e-02 1.187100e-15 2 
    4.132380 6.671815e-02 1.172100e-15 2 
    4.142050 6.962711e-02 1.217500e-15 2 
    4.151730 6.782705e-02 1.180500e-15 2 
    4.161410 6.768769e-02 1.172600e-15 2 
    4.171080 6.576990e-02 1.134100e-15 2 
    4.180760 6.723495e-02 1.154000e-15 2 
    4.190440 6.337912e-02 1.082800e-15 2 
    4.200110 6.121401e-02 1.041000e-15 2 
    4.209790 5.912169e-02 1.000800e-15 2 
    4.219460 6.428968e-02 1.083300e-15 2 
    4.229140 6.917563e-02 1.160300e-15 2 
    4.238820 7.028324e-02 1.173500e-15 2 
    4.248490 6.970179e-02 1.158500e-15 2 
    4.258170 6.919175e-02 1.144800e-15 2 
    4.267850 6.749703e-02 1.111700e-15 2 
    4.277520 7.115162e-02 1.166600e-15 2 
    4.287200 6.871088e-02 1.121500e-15 2 
    4.296870 6.894734e-02 1.120300e-15 2 
    4.306550 6.520287e-02 1.054700e-15 2 
    4.316230 6.581923e-02 1.059900e-15 2 
    4.325900 6.419324e-02 1.029100e-15 2 
    4.335580 6.393573e-02 1.020400e-15 2 
    4.345260 5.946724e-02 9.448600e-16 2 
    4.354930 6.280398e-02 9.934500e-16 2 
    4.364610 6.235071e-02 9.819100e-16 2 
    4.374280 6.257308e-02 9.810600e-16 2 
    4.383960 6.211615e-02 9.696000e-16 2 
    4.393640 6.671487e-02 1.036800e-15 2 
    4.403310 6.878620e-02 1.064300e-15 2 
    4.412990 6.806979e-02 1.048600e-15 2 
    4.422670 6.657575e-02 1.021100e-15 2 
    4.432340 6.654632e-02 1.016200e-15 2 
    4.442020 6.271539e-02 9.535300e-16 2 
    4.451690 6.488858e-02 9.822900e-16 2 
    4.461370 6.712896e-02 1.011800e-15 2 
    4.471050 6.716070e-02 1.007900e-15 2 
    4.480720 6.281579e-02 9.386300e-16 2 
    4.490400 6.270102e-02 9.328799e-16 2 
    4.500080 6.057193e-02 8.973300e-16 2 
    4.509750 6.265005e-02 9.241401e-16 2 
    4.519430 5.843527e-02 8.582800e-16 2 
    4.529100 6.009346e-02 8.788700e-16 2 
    4.538780 5.962478e-02 8.683000e-16 2 
    4.548460 6.318541e-02 9.162400e-16 2 
    4.558130 5.906981e-02 8.529300e-16 2 
    4.567810 5.747373e-02 8.263700e-16 2 
    4.577490 5.118919e-02 7.329000e-16 2 
    4.587160 5.453886e-02 7.775700e-16 2 
    4.596840 5.622097e-02 7.981800e-16 2 
    4.606510 6.172950e-02 8.727100e-16 2 
    4.616190 5.978156e-02 8.416300e-16 2 
    4.625870 6.164030e-02 8.641700e-16 2 
    4.635540 5.658352e-02 7.899700e-16 2 
    4.645220 5.910880e-02 8.217900e-16 2 
    4.654900 5.036099e-02 6.972600e-16 2 
    4.664570 5.146252e-02 7.095600e-16 2 
    4.674250 4.857165e-02 6.669300e-16 2 
    4.683920 6.395981e-02 8.746000e-16 2 
    4.693600 6.200016e-02 8.443100e-16 2 
    4.703280 6.534055e-02 8.861400e-16 2 
    4.712950 6.152029e-02 8.309100e-16 2 
    4.722630 6.589119e-02 8.863000e-16 2 
    4.732310 6.587493e-02 8.824600e-16 2 
    4.741980 6.078367e-02 8.109400e-16 2 
    4.751660 5.240493e-02 6.963100e-16 2 
    4.761330 5.799658e-02 7.674800e-16 2 
    4.771010 4.965192e-02 6.543900e-16 2 
    4.780690 6.016425e-02 7.897300e-16 2 
    4.790360 5.675541e-02 7.419800e-16 2 
    4.800040 6.202164e-02 8.075600e-16 2 
    4.809720 5.766850e-02 7.478600e-16 2 
    4.819390 5.850683e-02 7.556900e-16 2 
    4.829070 6.117203e-02 7.869500e-16 2 
    4.838740 6.581663e-02 8.433200e-16 2 
    4.848420 6.403041e-02 8.171600e-16 2 
    4.858100 7.076328e-02 8.994900e-16 2 
    4.867770 7.078542e-02 8.962000e-16 2 
    4.877450 7.421933e-02 9.359500e-16 2 
    4.887130 7.130899e-02 8.956900e-16 2 
    4.896800 6.741837e-02 8.434800e-16 2 
    4.897789 6.180915e-02 7.729900e-16 0 
    4.920395 6.195170e-02 7.676700e-16 0 
    4.943104 6.195148e-02 7.606300e-16 0 
    4.965924 6.209407e-02 7.553900e-16 0 
    4.977371 6.180921e-02 7.484700e-16 0 
    5.000344 6.223774e-02 7.467500e-16 0 
    5.023429 6.223752e-02 7.399000e-16 0 
    5.046614 6.238124e-02 7.348100e-16 0 
    5.058246 6.223759e-02 7.297500e-16 0 
    5.081593 6.223760e-02 7.230600e-16 0 
    5.105052 6.252427e-02 7.197300e-16 0 
    5.116820 6.266887e-02 7.180800e-16 0 
    5.128614 6.281344e-02 7.164300e-16 0 
    5.140436 6.281357e-02 7.131400e-16 0 
    5.152285 6.281324e-02 7.098600e-16 0 
    5.164162 6.295827e-02 7.082300e-16 0 
    5.176071 6.310342e-02 7.066000e-16 0 
    5.188002 6.310307e-02 7.033500e-16 0 
    5.199961 6.339433e-02 7.033500e-16 0 
    5.211947 6.354023e-02 7.017300e-16 0 
    5.223961 6.368704e-02 7.001200e-16 0 
    5.236003 6.368674e-02 6.969000e-16 0 
    5.248072 6.383377e-02 6.953000e-16 0 
    5.260175 6.398097e-02 6.937000e-16 0 
    5.272300 6.412894e-02 6.921100e-16 0 
    5.284453 6.427599e-02 6.905100e-16 0 
    5.296634 6.472228e-02 6.921100e-16 0 
    5.308843 6.502099e-02 6.921100e-16 0 
    5.321080 6.502097e-02 6.889300e-16 0 
    5.333352 6.502066e-02 6.857600e-16 0 
    5.345646 6.517027e-02 6.841800e-16 0 
    5.357968 6.547106e-02 6.841800e-16 0 
    5.370318 6.577323e-02 6.841800e-16 0 
    5.382697 6.592517e-02 6.826100e-16 0 
    5.395105 6.622946e-02 6.826100e-16 0 
    5.407541 6.653513e-02 6.826100e-16 0 
    5.420011 6.684235e-02 6.826100e-16 0 
    5.432505 6.715088e-02 6.826100e-16 0 
    5.445027 6.746079e-02 6.826100e-16 0 
    5.457579 6.761630e-02 6.810400e-16 0 
    5.470159 6.792838e-02 6.810400e-16 0 
    5.482768 6.824190e-02 6.810400e-16 0 
    5.495406 6.871490e-02 6.826100e-16 0 
    5.508079 6.903219e-02 6.826100e-16 0 
    5.520776 6.935083e-02 6.826100e-16 0 
    5.533502 6.983116e-02 6.841800e-16 0 
    5.546257 7.015346e-02 6.841800e-16 0 
    5.559041 7.080275e-02 6.873400e-16 0 
    5.571855 7.145759e-02 6.905100e-16 0 
    5.584705 7.178756e-02 6.905100e-16 0 
    5.597578 7.211889e-02 6.905100e-16 0 
    5.610481 7.295434e-02 6.953000e-16 0 
    5.623413 7.345970e-02 6.969000e-16 0 
    5.636376 7.396927e-02 6.985100e-16 0 
    5.649368 7.465322e-02 7.017300e-16 0 
    5.662390 7.534404e-02 7.049700e-16 0 
    5.675448 7.604197e-02 7.082300e-16 0 
    5.688531 7.674567e-02 7.115000e-16 0 
    5.701643 7.781290e-02 7.180800e-16 0 
    5.714786 7.853239e-02 7.213900e-16 0 
    5.727959 7.925904e-02 7.247200e-16 0 
    5.741162 8.036207e-02 7.314300e-16 0 
    5.754402 8.148041e-02 7.382000e-16 0 
    5.767667 8.280458e-02 7.467500e-16 0 
    5.780962 8.376269e-02 7.519200e-16 0 
    5.794287 8.512404e-02 7.606300e-16 0 
    5.800553 1.207121e-01 1.076300e-15 3 
    5.831539 1.020443e-01 9.002100e-16 3 
    5.862525 1.054172e-01 9.201599e-16 3 
    5.893510 9.642588e-02 8.328500e-16 3 
    5.924495 1.035205e-01 8.848000e-16 3 
    5.955481 1.124032e-01 9.507500e-16 3 
    5.986466 1.671832e-01 1.399500e-15 3 
    6.017451 1.748688e-01 1.448800e-15 3 
    6.048437 2.120751e-01 1.739100e-15 3 
    6.079422 2.097691e-01 1.702700e-15 3 
    6.110407 2.103820e-01 1.690400e-15 3 
    6.141393 2.357168e-01 1.874900e-15 3 
    6.172378 3.440272e-01 2.709000e-15 3 
    6.203363 4.693358e-01 3.658900e-15 3 
    6.234349 6.259418e-01 4.831400e-15 3 
    6.265334 6.335531e-01 4.841900e-15 3 
    6.296319 5.453246e-01 4.126700e-15 3 
    6.327305 4.580247e-01 3.432200e-15 3 
    6.358290 3.934843e-01 2.919900e-15 3 
    6.389276 3.325565e-01 2.443900e-15 3 
    6.420261 2.838667e-01 2.066000e-15 3 
    6.451246 2.752514e-01 1.984100e-15 3 
    6.482232 2.411489e-01 1.721700e-15 3 
    6.513217 2.103424e-01 1.487500e-15 3 
    6.544202 2.015419e-01 1.411800e-15 3 
    6.575188 1.884675e-01 1.307800e-15 3 
    6.606173 1.844581e-01 1.268000e-15 3 
    6.637158 2.157954e-01 1.469600e-15 3 
    6.668145 2.187785e-01 1.476100e-15 3 
    6.699129 2.179890e-01 1.457200e-15 3 
    6.730114 2.083242e-01 1.379800e-15 3 
    6.761100 2.378572e-01 1.561000e-15 3 
    6.792085 2.351985e-01 1.529500e-15 3 
    6.823071 2.426720e-01 1.563800e-15 3 
    6.854056 2.477781e-01 1.582300e-15 3 
    6.885041 2.411430e-01 1.526100e-15 3 
    6.916027 2.130412e-01 1.336200e-15 3 
    6.947012 2.425436e-01 1.507700e-15 3 
    6.977998 2.734893e-01 1.685000e-15 3 
    7.008983 3.091653e-01 1.888000e-15 3 
    7.039968 3.312667e-01 2.005200e-15 3 
    7.070954 2.591917e-01 1.555200e-15 3 
    7.101939 2.563067e-01 1.524500e-15 3 
    7.132924 2.754568e-01 1.624200e-15 3 
    7.163910 3.191691e-01 1.865700e-15 3 
    7.194895 3.329622e-01 1.929600e-15 3 
    7.225881 3.289267e-01 1.889900e-15 3 
    7.256866 4.033214e-01 2.297600e-15 3 
    7.287851 4.083664e-01 2.306600e-15 3 
    7.318838 4.144176e-01 2.321000e-15 3 
    7.349822 4.422608e-01 2.456100e-15 3 
    7.380807 4.735989e-01 2.608100e-15 3 
    7.411793 5.017550e-01 2.740100e-15 3 
    7.442778 5.559991e-01 3.011100e-15 3 
    7.473763 6.104441e-01 3.278600e-15 3 
    7.504748 6.446154e-01 3.433600e-15 3 
    7.533706 7.259375e-01 3.837100e-15 3 
    7.535734 7.609876e-01 4.020200e-15 3 
    7.566720 7.781371e-01 4.077200e-15 3 
    7.595799 8.829629e-01 4.591100e-15 3 
    7.597705 8.802503e-01 4.574700e-15 3 
    7.657894 1.033804e+00 5.288600e-15 3 
    7.719988 1.010488e+00 5.086500e-15 3 
    7.782082 9.331208e-01 4.622400e-15 3 
    7.844176 9.160749e-01 4.466400e-15 3 
    7.906271 8.566459e-01 4.111300e-15 3 
    7.968365 7.857275e-01 3.712400e-15 3 
    8.030459 6.311468e-01 2.936100e-15 3 
    8.092554 5.574024e-01 2.553400e-15 3 
    8.154648 5.241395e-01 2.364600e-15 3 
    8.216741 4.523943e-01 2.010200e-15 3 
    8.278836 4.427171e-01 1.937800e-15 3 
    8.340930 4.932592e-01 2.127000e-15 3 
    8.403025 4.819895e-01 2.047800e-15 3 
    8.465119 5.227707e-01 2.188600e-15 3 
    8.527213 5.256692e-01 2.168800e-15 3 
    8.589307 5.877995e-01 2.390200e-15 3 
    8.651402 6.284384e-01 2.518900e-15 3 
    8.713495 5.691591e-01 2.248900e-15 3 
    8.775590 4.677647e-01 1.822200e-15 3 
    8.837684 3.764645e-01 1.446000e-15 3 
    8.899778 3.181707e-01 1.205100e-15 3 
    8.961872 2.671014e-01 9.977000e-16 3 
    9.023966 2.484598e-01 9.153400e-16 3 
    9.086060 2.411227e-01 8.762100e-16 3 
    9.148155 1.976588e-01 7.085500e-16 3 
    9.210249 1.901435e-01 6.724500e-16 3 
    9.272344 1.749648e-01 6.105100e-16 3 
    9.334438 1.750099e-01 6.025700e-16 3 
    9.396532 1.842124e-01 6.259000e-16 3 
    9.458626 1.754659e-01 5.883800e-16 3 
    9.520720 1.810344e-01 5.991600e-16 3 
    9.582815 1.837648e-01 6.003400e-16 3 
    9.644909 1.789508e-01 5.771100e-16 3 
    9.707002 1.826820e-01 5.816300e-16 3 
    9.769098 1.990748e-01 6.257900e-16 3 
    9.831192 1.720541e-01 5.340400e-16 3 
    9.893286 1.702996e-01 5.219800e-16 3 
    9.955380 1.459884e-01 4.419000e-16 3 
   10.017470 1.714408e-01 5.125300e-16 3 
   10.079570 1.654384e-01 4.885100e-16 3 
   10.141659 1.786012e-01 5.209400e-16 3 
   10.203760 1.570115e-01 4.524100e-16 3 
   10.265850 1.738897e-01 4.950000e-16 3 
   10.327949 1.602203e-01 4.506200e-16 3 
   10.390041 1.640417e-01 4.558700e-16 3 
   10.452130 1.906105e-01 5.234300e-16 3 
   10.514230 2.135365e-01 5.794800e-16 3 
   10.576320 2.513238e-01 6.740400e-16 3 
   10.638420 2.447242e-01 6.487000e-16 3 
   10.700510 2.856950e-01 7.485400e-16 3 
   10.762600 2.626140e-01 6.801500e-16 3 
   10.824700 2.772379e-01 7.098100e-16 3 
   10.886791 2.687373e-01 6.802200e-16 3 
   10.948890 2.983968e-01 7.467500e-16 3 
   11.010980 3.562242e-01 8.814400e-16 3 
   11.073080 4.374427e-01 1.070300e-15 3 
   11.135170 4.795598e-01 1.160300e-15 3 
   11.197260 6.810567e-01 1.629600e-15 3 
   11.259360 1.142142e+00 2.702800e-15 3 
   11.321450 1.357376e+00 3.177000e-15 3 
   11.383550 1.175856e+00 2.722200e-15 3 
   11.445640 9.280229e-01 2.125200e-15 3 
   11.507740 7.674207e-01 1.738500e-15 3 
   11.569830 6.420417e-01 1.438900e-15 3 
   11.631920 5.323215e-01 1.180300e-15 3 
   11.694020 4.763462e-01 1.045000e-15 3 
   11.756110 4.376297e-01 9.499500e-16 3 
   11.818209 4.257796e-01 9.145400e-16 3 
   11.880299 4.462283e-01 9.484700e-16 3 
   11.942400 4.779227e-01 1.005300e-15 3 
   12.004490 5.254650e-01 1.093900e-15 3 
   12.066580 5.458147e-01 1.124600e-15 3 
   12.128680 4.927523e-01 1.004900e-15 3 
   12.190770 4.898099e-01 9.887500e-16 3 
   12.252870 4.600220e-01 9.192300e-16 3 
   12.314959 4.793765e-01 9.482700e-16 3 
   12.377051 5.408167e-01 1.059100e-15 3 
   12.439150 5.755016e-01 1.115800e-15 3 
   12.501240 5.969934e-01 1.146000e-15 3 
   12.563340 6.453976e-01 1.226700e-15 3 
   12.625430 6.692205e-01 1.259500e-15 3 
   12.687530 7.113414e-01 1.325700e-15 3 
   12.749620 7.483932e-01 1.381200e-15 3 
   12.811710 8.790240e-01 1.606600e-15 3 
   12.873810 1.292236e+00 2.339100e-15 3 
   12.935900 1.088475e+00 1.951400e-15 3 
   12.998000 5.585928e-01 9.918900e-16 3 
   13.060090 4.314409e-01 7.588400e-16 3 
   13.122180 4.262259e-01 7.425900e-16 3 
   13.184280 4.019940e-01 6.937900e-16 3 
   13.246370 4.124395e-01 7.051600e-16 3 
   13.308470 4.075484e-01 6.903100e-16 3 
   13.370559 4.007111e-01 6.724400e-16 3 
   13.432659 3.985297e-01 6.626100e-16 3 
   13.494750 4.118318e-01 6.784400e-16 3 
   13.556841 3.966511e-01 6.474600e-16 3 
   13.618941 4.267978e-01 6.903300e-16 3 
   13.681030 3.888843e-01 6.233100e-16 3 
   13.743130 3.866558e-01 6.141500e-16 3 
   13.805220 3.493343e-01 5.498900e-16 3 
   13.867320 3.589776e-01 5.600200e-16 3 
   13.929409 3.574392e-01 5.526600e-16 3 
   13.991500 3.430143e-01 5.256600e-16 3 
   14.053600 3.607339e-01 5.479400e-16 3 
   14.115691 3.618098e-01 5.447500e-16 3 
   14.177789 3.836538e-01 5.725900e-16 3 
   14.239880 3.862848e-01 5.715000e-16 3 
   14.301980 4.029909e-01 5.910500e-16 3 
   14.364070 3.944550e-01 5.735400e-16 3 
   14.426159 3.994333e-01 5.757900e-16 3 
   14.488261 3.641374e-01 5.204200e-16 3 
   14.541691 3.537386e-01 5.018500e-16 3 
   14.633380 3.095904e-01 4.337300e-16 3 
   14.725080 3.179927e-01 4.399700e-16 3 
   14.816770 3.109957e-01 4.249800e-16 3 
   14.908459 2.931045e-01 3.956200e-16 3 
   15.000150 3.049936e-01 4.066500e-16 3 
   15.091850 3.149899e-01 4.148900e-16 3 
   15.183541 3.083010e-01 4.011900e-16 3 
   15.275230 3.264946e-01 4.197800e-16 3 
   15.366930 3.674378e-01 4.668000e-16 3 
   15.458620 3.504958e-01 4.400100e-16 3 
   15.550309 3.685217e-01 4.572000e-16 3 
   15.642000 5.339155e-01 6.546500e-16 3 
   15.733700 4.713587e-01 5.712300e-16 3 
   15.825391 3.903822e-01 4.676300e-16 3 
   15.917080 4.194350e-01 4.966600e-16 3 
   16.008780 4.156622e-01 4.865700e-16 3 
   16.100470 4.249910e-01 4.918400e-16 3 
   16.192159 4.179595e-01 4.782400e-16 3 
   16.283859 4.312717e-01 4.879300e-16 3 
   16.375550 4.622608e-01 5.171500e-16 3 
   16.467239 5.989693e-01 6.626500e-16 3 
   16.558930 7.191669e-01 7.868400e-16 3 
   16.650631 6.509216e-01 7.043500e-16 3 
   16.742319 6.336020e-01 6.781200e-16 3 
   16.834009 6.551363e-01 6.935500e-16 3 
   16.925700 6.596091e-01 6.907400e-16 3 
   17.017400 6.653470e-01 6.892600e-16 3 
   17.109091 8.382358e-01 8.590800e-16 3 
   17.200781 8.279144e-01 8.394800e-16 3 
   17.292481 7.317162e-01 7.340900e-16 3 
   17.384170 7.281634e-01 7.228400e-16 3 
   17.475861 7.323731e-01 7.194100e-16 3 
   17.567561 6.741683e-01 6.553400e-16 3 
   17.659250 5.847067e-01 5.624900e-16 3 
   17.750941 5.656391e-01 5.385400e-16 3 
   17.842630 5.593151e-01 5.270600e-16 3 
   17.934330 5.662369e-01 5.281400e-16 3 
   18.026020 5.347928e-01 4.937500e-16 3 
   18.117709 5.402690e-01 4.937700e-16 3 
   18.209409 4.513834e-01 4.083900e-16 3 
   18.301100 4.974943e-01 4.456100e-16 3 
   18.392789 5.101822e-01 4.524300e-16 3 
   18.484489 4.965810e-01 4.360100e-16 3 
   18.576180 5.175772e-01 4.499700e-16 3 
   18.667870 5.438758e-01 4.682000e-16 3 
   18.759559 7.461900e-01 6.361000e-16 3 
   18.851259 1.048353e+00 8.850100e-16 3 
   18.942950 6.903872e-01 5.771900e-16 3 
   19.034639 5.591887e-01 4.630100e-16 3 
   19.126341 5.995007e-01 4.916400e-16 3 
   19.218031 5.580125e-01 4.532600e-16 3 
   19.309719 5.549353e-01 4.464900e-16 3 
   19.401409 5.049854e-01 4.024700e-16 3 
   19.493111 5.704281e-01 4.503600e-16 3 
   19.584800 5.366705e-01 4.197500e-16 3 
   19.676491 5.079079e-01 3.935600e-16 3 
   19.768191 5.680528e-01 4.360900e-16 3 
   19.859880 5.321971e-01 4.048000e-16 3 
   19.951570 5.363663e-01 4.042300e-16 3 
   20.043261 5.618227e-01 4.195500e-16 3 
   20.134961 5.786241e-01 4.281700e-16 3 
   20.226650 5.997115e-01 4.397600e-16 3 
   20.318341 5.532401e-01 4.020300e-16 3 
   20.410041 5.905710e-01 4.253100e-16 3 
   20.555241 5.661176e-01 4.019600e-16 3 
   20.730739 6.267958e-01 4.375400e-16 3 
   20.906339 6.073157e-01 4.168500e-16 3 
   21.082041 6.020405e-01 4.063700e-16 3 
   21.257830 6.516331e-01 4.326000e-16 3 
   21.433709 6.803465e-01 4.442800e-16 3 
   21.609689 6.403679e-01 4.113900e-16 3 
   21.785761 6.781678e-01 4.286600e-16 3 
   21.961930 7.012382e-01 4.361600e-16 3 
   22.138200 7.202018e-01 4.408500e-16 3 
   22.314559 7.018624e-01 4.228600e-16 3 
   22.491020 7.578585e-01 4.494600e-16 3 
   22.667570 7.997760e-01 4.669600e-16 3 
   22.844219 7.805435e-01 4.487100e-16 3 
   23.020969 7.628670e-01 4.318400e-16 3 
   23.197809 8.116741e-01 4.524900e-16 3 
   23.374750 8.429534e-01 4.628400e-16 3 
   23.551791 8.620942e-01 4.662600e-16 3 
   23.728920 8.488718e-01 4.522800e-16 3 
   23.906161 8.859273e-01 4.650500e-16 3 
   24.083481 9.062526e-01 4.687400e-16 3 
   24.260909 9.340166e-01 4.760600e-16 3 
   24.438441 9.176552e-01 4.609500e-16 3 
   24.616061 8.961402e-01 4.436700e-16 3 
   24.793780 9.059094e-01 4.421000e-16 3 
   24.971600 9.867126e-01 4.747000e-16 3 
   25.149509 9.850731e-01 4.672300e-16 3 
   25.327530 9.766377e-01 4.567400e-16 3 
   25.505641 1.012974e+00 4.671400e-16 3 
   25.683861 1.027136e+00 4.671200e-16 3 
   25.862169 1.067175e+00 4.786600e-16 3 
   26.040581 1.227835e+00 5.432000e-16 3 
   26.219091 1.176280e+00 5.133300e-16 3 
   26.397700 1.074990e+00 4.628000e-16 3 
   26.576409 1.103673e+00 4.687800e-16 3 
   26.755222 1.103494e+00 4.624600e-16 3 
   26.934131 1.108484e+00 4.584000e-16 3 
   27.113141 1.151398e+00 4.698800e-16 3 
   27.292250 1.168746e+00 4.707200e-16 3 
   27.471459 1.162737e+00 4.622100e-16 3 
   27.650781 1.182936e+00 4.641600e-16 3 
   27.830191 1.220204e+00 4.726300e-16 3 
   28.009700 1.246430e+00 4.766200e-16 3 
   28.189319 1.296849e+00 4.896000e-16 3 
   28.369041 1.331626e+00 4.963800e-16 3 
   28.548850 1.326608e+00 4.883000e-16 3 
   28.728769 1.286186e+00 4.675100e-16 3 
   28.908791 1.305726e+00 4.687200e-16 3 
   29.088922 1.308849e+00 4.640400e-16 3 
   29.269150 1.353873e+00 4.741100e-16 3 
   29.449472 1.488729e+00 5.149700e-16 3 
   29.629909 1.416191e+00 4.839300e-16 3 
   29.810441 1.438537e+00 4.856300e-16 3 
   29.991078 1.452696e+00 4.845200e-16 3 
   30.171819 1.440489e+00 4.747100e-16 3 
   30.352659 1.523834e+00 4.962100e-16 3 
   30.533609 1.518408e+00 4.886000e-16 3 
   30.714659 1.560871e+00 4.963600e-16 3 
   30.895809 1.584937e+00 4.981200e-16 3 
   31.077069 1.681784e+00 5.224100e-16 3 
   31.258441 1.636593e+00 5.024900e-16 3 
   31.439909 1.595816e+00 4.843300e-16 3 
   31.621481 1.691961e+00 5.076300e-16 3 
   31.803150 1.752253e+00 5.197300e-16 3 
   31.984941 1.754030e+00 5.143600e-16 3 
   32.166822 1.772794e+00 5.140000e-16 3 
   32.348819 1.881405e+00 5.393700e-16 3 
   32.530909 1.835340e+00 5.202900e-16 3 
   32.713119 1.950523e+00 5.468000e-16 3 
   32.895431 1.928644e+00 5.346900e-16 3 
   33.077838 2.035398e+00 5.580800e-16 3 
   33.260359 2.061758e+00 5.591200e-16 3 
   33.442991 2.182884e+00 5.855200e-16 3 
   33.625728 3.093717e+00 8.208400e-16 3 
   33.808572 2.643690e+00 6.938700e-16 3 
   33.991519 2.294055e+00 5.956400e-16 3 
   34.174569 2.050056e+00 5.266000e-16 3 
   34.357731 2.022393e+00 5.139700e-16 3 
   34.541013 2.181947e+00 5.486500e-16 3 
   34.724381 2.439298e+00 6.069000e-16 3 
   34.907872 3.945046e+00 9.712400e-16 3 
