# NGC 4385       
# 
# An Atlas of Galaxy Spectral Energy Distributions from the Ultraviolet to the Mid-Infrared
# Brown et al. (2014)
# http://dx.doi.org/10.5072/03/529D3551F0117
# http://dx.doi.org/10.17909/t9-5bxk-dh29
# 
# The Spectral Energy Distributions of Active Galactic Nuclei
# Brown et al. (2019)
# http://dx.doi.org/10.17909/t9-3dbt-8734
# 
# Column 1: Observed wavelength (um)
# Column 2: f_nu (Jy)
# Column 3: f_lam (erg/s/cm2/A)
# Column 4: Source (0 = model, 1 = Optical Spectrun, 2 = Akari, 3 = Spitzer IRS)
# 
    0.010280 4.442368e-14 1.261100e-22 0 
    0.010471 5.618048e-14 1.537200e-22 0 
    0.010666 7.321823e-14 1.930800e-22 0 
    0.010889 9.651625e-14 2.442000e-22 0 
    0.011066 1.550951e-13 3.799600e-22 0 
    0.011482 2.481160e-13 5.646000e-22 0 
    0.011885 3.712088e-13 7.883900e-22 0 
    0.012190 1.065682e-12 2.151500e-21 0 
    0.012589 1.583456e-12 2.997400e-21 0 
    0.012794 1.908202e-12 3.497300e-21 0 
    0.012882 2.096948e-12 3.790900e-21 0 
    0.013183 2.714218e-12 4.685300e-21 0 
    0.013305 3.152426e-12 5.342400e-21 0 
    0.013490 3.703719e-12 6.105700e-21 0 
    0.013804 5.019098e-12 7.902000e-21 0 
    0.014093 6.362423e-12 9.610300e-21 0 
    0.014388 1.058327e-11 1.533700e-20 0 
    0.014791 1.712415e-11 2.348200e-20 0 
    0.015205 2.283407e-11 2.963000e-20 0 
    0.015596 3.010522e-11 3.713100e-20 0 
    0.015996 3.941282e-11 4.621000e-20 0 
    0.016331 4.815474e-11 5.416700e-20 0 
    0.016711 6.174756e-11 6.633400e-20 0 
    0.017140 7.863891e-11 8.030400e-20 0 
    0.017418 9.345726e-11 9.241400e-20 0 
    0.017824 1.171236e-10 1.106000e-19 0 
    0.018113 1.379142e-10 1.261100e-19 0 
    0.018323 1.536759e-10 1.373200e-19 0 
    0.018750 1.899375e-10 1.620800e-19 0 
    0.019231 2.430038e-10 1.971200e-19 0 
    0.019543 2.815834e-10 2.211800e-19 0 
    0.019953 3.401158e-10 2.562900e-19 0 
    0.020324 4.060980e-10 2.949400e-19 0 
    0.020654 4.651797e-10 3.271400e-19 0 
    0.021135 5.618594e-10 3.773500e-19 0 
    0.021777 7.372500e-10 4.663800e-19 0 
    0.022182 8.642047e-10 5.269100e-19 0 
    0.022439 9.607786e-10 5.724500e-19 0 
    0.022856 1.121028e-09 6.437800e-19 0 
    0.023174 2.200945e-09 1.229500e-18 0 
    0.023550 3.711955e-09 2.007900e-18 0 
    0.024155 5.077304e-09 2.610600e-18 0 
    0.024774 5.709726e-09 2.790900e-18 0 
    0.025351 6.708222e-09 3.131400e-18 0 
    0.025882 6.450701e-09 2.888900e-18 0 
    0.026182 7.773538e-09 3.402000e-18 0 
    0.026607 8.721964e-09 3.696100e-18 0 
    0.027102 9.607745e-09 3.924100e-18 0 
    0.027606 1.053464e-08 4.147000e-18 0 
    0.028119 1.152440e-08 4.372600e-18 0 
    0.028576 1.254932e-08 4.610400e-18 0 
    0.029174 1.341567e-08 4.728700e-18 0 
    0.029785 1.508740e-08 5.102000e-18 0 
    0.030339 1.594474e-08 5.196800e-18 0 
    0.031046 1.801475e-08 5.607100e-18 0 
    0.032063 2.116520e-08 6.176400e-18 0 
    0.033037 2.418893e-08 6.648700e-18 0 
    0.034041 2.732890e-08 7.075200e-18 0 
    0.035075 3.073343e-08 7.494400e-18 0 
    0.035975 3.401116e-08 7.883900e-18 0 
    0.036898 3.763763e-08 8.293500e-18 0 
    0.037757 4.107841e-08 8.644500e-18 0 
    0.038815 4.432178e-08 8.825500e-18 0 
    0.039811 4.961631e-08 9.391600e-18 0 
    0.040832 5.440244e-08 9.789000e-18 0 
    0.041687 5.842504e-08 1.008600e-17 0 
    0.042462 6.217419e-08 1.034500e-17 0 
    0.043351 6.631456e-08 1.058600e-17 0 
    0.044463 7.271253e-08 1.103400e-17 0 
    0.045394 7.809045e-08 1.136900e-17 0 
    0.046345 8.348729e-08 1.166100e-17 0 
    0.047315 8.986925e-08 1.204300e-17 0 
    0.048306 9.696344e-08 1.246600e-17 0 
    0.049317 1.041373e-07 1.284500e-17 0 
    0.050350 1.134045e-07 1.342000e-17 0 
    0.050933 1.704543e-07 1.971200e-17 0 
    0.051523 4.042189e-07 4.568100e-17 0 
    0.052360 4.262044e-07 4.663800e-17 0 
    0.053333 4.566793e-07 4.816600e-17 0 
    0.054325 4.609094e-07 4.685300e-17 0 
    0.055335 5.924080e-07 5.804200e-17 0 
    0.056364 7.204787e-07 6.803600e-17 0 
    0.057412 8.253199e-07 7.511700e-17 0 
    0.058479 8.387157e-07 7.357600e-17 0 
    0.059429 1.001420e-06 8.506300e-17 0 
    0.060395 1.053463e-06 8.664400e-17 0 
    0.061376 1.240553e-06 9.879600e-17 0 
    0.062373 1.467585e-06 1.131700e-16 0 
    0.063387 1.616674e-06 1.207100e-16 0 
    0.064417 1.740321e-06 1.258200e-16 0 
    0.065464 1.970775e-06 1.379600e-16 0 
    0.066222 2.111694e-06 1.444600e-16 0 
    0.066988 2.309960e-06 1.544300e-16 0 
    0.067920 2.492319e-06 1.620800e-16 0 
    0.069024 2.573999e-06 1.620800e-16 0 
    0.069984 3.159545e-06 1.935300e-16 0 
    0.070958 3.152270e-06 1.878200e-16 0 
    0.072111 3.869144e-06 2.232200e-16 0 
    0.073114 4.155536e-06 2.332100e-16 0 
    0.073961 4.462977e-06 2.447600e-16 0 
    0.074989 4.995972e-06 2.665300e-16 0 
    0.076033 5.427798e-06 2.816700e-16 0 
    0.077090 5.883242e-06 2.969900e-16 0 
    0.077983 6.480691e-06 3.197000e-16 0 
    0.079068 7.171589e-06 3.441400e-16 0 
    0.079983 7.684414e-06 3.603600e-16 0 
    0.081096 8.253146e-06 3.764800e-16 0 
    0.082035 8.802725e-06 3.924100e-16 0 
    0.083176 9.763722e-06 4.233900e-16 0 
    0.084140 9.154317e-06 3.879200e-16 0 
    0.085114 1.098033e-05 4.547100e-16 0 
    0.086099 1.173855e-05 4.750500e-16 0 
    0.087096 1.278243e-05 5.055200e-16 0 
    0.088105 1.388735e-05 5.367100e-16 0 
    0.089125 1.512212e-05 5.711300e-16 0 
    0.090157 1.624113e-05 5.994300e-16 0 
    0.091201 1.708495e-05 6.162200e-16 0 
    0.092257 2.527049e-05 8.907100e-16 0 
    0.093111 1.522710e-04 5.269100e-15 0 
    0.094189 3.278044e-04 1.108500e-14 0 
    0.095280 6.465852e-04 2.136700e-14 0 
    0.096161 8.562665e-04 2.778000e-14 0 
    0.097275 1.068119e-03 3.386400e-14 0 
    0.098175 3.087575e-04 9.610300e-15 0 
    0.099312 1.147151e-03 3.489300e-14 0 
    0.100231 1.134021e-03 3.386400e-14 0 
    0.101158 1.372817e-03 4.024700e-14 0 
    0.102329 1.311032e-03 3.756100e-14 0 
    0.103276 6.089892e-04 1.712900e-14 0 
    0.104232 1.147162e-03 3.167700e-14 0 
    0.105196 1.740270e-03 4.717800e-14 0 
    0.106170 1.740295e-03 4.631700e-14 0 
    0.107152 1.568992e-03 4.099600e-14 0 
    0.108143 1.772597e-03 4.547100e-14 0 
    0.109396 1.616647e-03 4.052600e-14 0 
    0.110408 1.903782e-03 4.685300e-14 0 
    0.111173 1.847653e-03 4.484800e-14 0 
    0.112202 1.877651e-03 4.474400e-14 0 
    0.113240 1.748286e-03 4.090100e-14 0 
    0.114288 2.016603e-03 4.631700e-14 0 
    0.115345 1.925822e-03 4.342500e-14 0 
    0.116413 2.025932e-03 4.484800e-14 0 
    0.117220 2.087461e-03 4.557600e-14 0 
    0.118304 1.650483e-03 3.537800e-14 0 
    0.119399 2.106769e-03 4.433400e-14 0 
    0.120226 1.860412e-03 3.861300e-14 0 
    0.121339 1.543919e-03 3.145900e-14 0 
    0.122462 8.662234e-04 1.732800e-14 0 
    0.123311 1.748340e-03 3.449400e-14 0 
    0.124451 2.211126e-03 4.282900e-14 0 
    0.125314 2.347583e-03 4.484800e-14 0 
    0.126474 2.352963e-03 4.413000e-14 0 
    0.127350 2.288850e-03 4.233900e-14 0 
    0.128529 2.532911e-03 4.599800e-14 0 
    0.129420 2.585961e-03 4.631700e-14 0 
    0.130317 2.352985e-03 4.156600e-14 0 
    0.131522 2.424435e-03 4.204700e-14 0 
    0.132434 2.689160e-03 4.599800e-14 0 
    0.133352 2.633982e-03 4.443600e-14 0 
    0.134586 2.562200e-03 4.243600e-14 0 
    0.135519 2.739138e-03 4.474400e-14 0 
    0.136458 2.764504e-03 4.453900e-14 0 
    0.137404 2.670619e-03 4.243600e-14 0 
    0.138357 2.720299e-03 4.263200e-14 0 
    0.139637 2.790104e-03 4.292800e-14 0 
    0.140605 2.492440e-03 3.782200e-14 0 
    0.141579 2.603862e-03 3.897100e-14 0 
    0.142561 2.796533e-03 4.128000e-14 0 
    0.143549 2.796552e-03 4.071400e-14 0 
    0.144544 2.868256e-03 4.118500e-14 0 
    0.145211 2.955376e-03 4.204700e-14 0 
    0.145881 2.962210e-03 4.175800e-14 0 
    0.146555 2.948622e-03 4.118500e-14 0 
    0.147571 2.881486e-03 3.969500e-14 0 
    0.148594 2.921575e-03 3.969500e-14 0 
    0.149624 2.948637e-03 3.951300e-14 0 
    0.150661 2.975880e-03 3.933100e-14 0 
    0.151705 2.908177e-03 3.790900e-14 0 
    0.152405 2.751814e-03 3.554200e-14 0 
    0.152757 2.848545e-03 3.662200e-14 0 
    0.153462 2.874898e-03 3.662200e-14 0 
    0.154525 2.670672e-03 3.355400e-14 0 
    0.155597 2.751837e-03 3.409900e-14 0 
    0.156675 2.695349e-03 3.294100e-14 0 
    0.157761 2.828914e-03 3.409900e-14 0 
    0.158489 2.975904e-03 3.554200e-14 0 
    0.159588 3.038202e-03 3.578800e-14 0 
    0.160694 3.116181e-03 3.620300e-14 0 
    0.161808 3.080467e-03 3.529700e-14 0 
    0.162555 3.087572e-03 3.505400e-14 0 
    0.163682 3.087576e-03 3.457300e-14 0 
    0.164816 3.218247e-03 3.554200e-14 0 
    0.165577 3.233047e-03 3.537800e-14 0 
    0.166725 3.203445e-03 3.457300e-14 0 
    0.167880 3.362127e-03 3.578800e-14 0 
    0.168267 3.225601e-03 3.417700e-14 0 
    0.169044 3.440440e-03 3.611900e-14 0 
    0.169824 3.480338e-03 3.620300e-14 0 
    0.170608 3.401066e-03 3.505400e-14 0 
    0.171791 3.369894e-03 3.425600e-14 0 
    0.172584 3.308445e-03 3.332300e-14 0 
    0.173780 3.331306e-03 3.309300e-14 0 
    0.174582 3.464330e-03 3.409900e-14 0 
    0.175792 3.448344e-03 3.347600e-14 0 
    0.176604 3.561365e-03 3.425600e-14 0 
    0.177828 3.448361e-03 3.271400e-14 0 
    0.178649 3.504424e-03 3.294100e-14 0 
    0.179887 3.577756e-03 3.316900e-14 0 
    0.180717 3.694998e-03 3.394200e-14 0 
    0.181970 3.746414e-03 3.394200e-14 0 
    0.182810 3.602621e-03 3.234000e-14 0 
    0.183654 3.678013e-03 3.271400e-14 0 
    0.184927 3.661123e-03 3.211700e-14 0 
    0.185780 3.472245e-03 3.018100e-14 0 
    0.186638 3.504391e-03 3.018100e-14 0 
    0.187932 3.627556e-03 3.081300e-14 0 
    0.188799 3.772436e-03 3.175000e-14 0 
    0.189671 3.577842e-03 2.983600e-14 0 
    0.190985 3.488373e-03 2.869100e-14 0 
    0.191867 3.695038e-03 3.011200e-14 0 
    0.192753 3.619268e-03 2.922400e-14 0 
    0.194089 3.586110e-03 2.855900e-14 0 
    0.194984 3.695043e-03 2.915700e-14 0 
    0.195884 3.869157e-03 3.025100e-14 0 
    0.196789 3.678058e-03 2.849300e-14 0 
    0.198153 3.932090e-03 3.004300e-14 0 
    0.199067 4.060780e-03 3.074200e-14 0 
    0.199986 3.922917e-03 2.942600e-14 0 
    0.200909 3.878079e-03 2.882300e-14 0 
    0.201837 3.968441e-03 2.922400e-14 0 
    0.202768 3.986772e-03 2.909000e-14 0 
    0.204174 4.107839e-03 2.956200e-14 0 
    0.205116 4.005169e-03 2.855900e-14 0 
    0.206063 4.088945e-03 2.888900e-14 0 
    0.207014 3.977496e-03 2.784400e-14 0 
    0.207970 4.060885e-03 2.816700e-14 0 
    0.208930 4.301443e-03 2.956200e-14 0 
    0.209411 4.165009e-03 2.849300e-14 0 
    0.209894 4.252236e-03 2.895600e-14 0 
    0.210863 4.136411e-03 2.790900e-14 0 
    0.211836 4.232712e-03 2.829700e-14 0 
    0.212814 4.291510e-03 2.842700e-14 0 
    0.213796 4.361375e-03 2.862500e-14 0 
    0.214783 4.271799e-03 2.778000e-14 0 
    0.216272 4.321411e-03 2.771700e-14 0 
    0.217270 4.432195e-03 2.816700e-14 0 
    0.218273 4.391582e-03 2.765300e-14 0 
    0.219281 4.401624e-03 2.746200e-14 0 
    0.220293 4.432154e-03 2.739900e-14 0 
    0.221309 4.556393e-03 2.790900e-14 0 
    0.221820 4.493812e-03 2.739900e-14 0 
    0.222844 4.422008e-03 2.671400e-14 0 
    0.223872 4.401589e-03 2.634700e-14 0 
    0.224905 4.566904e-03 2.708600e-14 0 
    0.225944 4.524963e-03 2.659100e-14 0 
    0.226986 4.452587e-03 2.592600e-14 0 
    0.228034 4.504197e-03 2.598600e-14 0 
    0.229087 4.587877e-03 2.622600e-14 0 
    0.230144 4.684159e-03 2.653100e-14 0 
    0.231207 4.546847e-03 2.551700e-14 0 
    0.232274 4.653652e-03 2.587700e-14 0 
    0.233346 4.601236e-03 2.535100e-14 0 
    0.234423 4.111120e-03 2.244300e-14 0 
    0.234963 4.487643e-03 2.438600e-14 0 
    0.236048 4.396388e-03 2.367100e-14 0 
    0.237137 4.636490e-03 2.473500e-14 0 
    0.238232 4.469605e-03 2.362600e-14 0 
    0.239332 4.585249e-03 2.401500e-14 0 
    0.240436 4.399879e-03 2.283300e-14 0 
    0.240991 4.544498e-03 2.347500e-14 0 
    0.242103 4.503694e-03 2.305100e-14 0 
    0.243220 4.567235e-03 2.316200e-14 0 
    0.244343 4.772499e-03 2.398100e-14 0 
    0.245471 4.708003e-03 2.344000e-14 0 
    0.246037 4.829419e-03 2.393400e-14 0 
    0.247172 4.852696e-03 2.382900e-14 0 
    0.248313 4.842519e-03 2.356100e-14 0 
    0.249460 4.777005e-03 2.302900e-14 0 
    0.250035 4.788633e-03 2.297900e-14 0 
    0.251189 4.616307e-03 2.194900e-14 0 
    0.252348 5.004785e-03 2.357800e-14 0 
    0.252930 4.682014e-03 2.195600e-14 0 
    0.253513 4.714976e-03 2.200900e-14 0 
    0.254097 4.661398e-03 2.165900e-14 0 
    0.255270 4.738202e-03 2.181400e-14 0 
    0.256448 4.750028e-03 2.166800e-14 0 
    0.257040 4.974597e-03 2.258800e-14 0 
    0.258226 4.929924e-03 2.218000e-14 0 
    0.259418 5.104306e-03 2.275400e-14 0 
    0.260615 5.117332e-03 2.260300e-14 0 
    0.261216 5.082508e-03 2.234600e-14 0 
    0.262422 5.013853e-03 2.184200e-14 0 
    0.263633 4.980539e-03 2.149800e-14 0 
    0.264241 5.144348e-03 2.210300e-14 0 
    0.265461 5.326323e-03 2.267500e-14 0 
    0.266686 5.669089e-03 2.391300e-14 0 
    0.267301 5.815302e-03 2.441700e-14 0 
    0.268534 5.541933e-03 2.305600e-14 0 
    0.269154 5.684671e-03 2.354100e-14 0 
    0.270396 5.791604e-03 2.376400e-14 0 
    0.271644 5.570688e-03 2.264800e-14 0 
    0.272270 5.714261e-03 2.312500e-14 0 
    0.273527 5.521496e-03 2.214000e-14 0 
    0.274157 5.484075e-03 2.188900e-14 0 
    0.275423 5.691107e-03 2.250700e-14 0 
    0.276694 5.263725e-03 2.062600e-14 0 
    0.277332 5.411858e-03 2.110900e-14 0 
    0.278612 5.629340e-03 2.175600e-14 0 
    0.279254 5.787623e-03 2.226500e-14 0 
    0.280543 5.553905e-03 2.117000e-14 0 
    0.281190 4.815757e-03 1.827200e-14 0 
    0.282488 5.067000e-03 1.904900e-14 0 
    0.283792 5.900206e-03 2.197800e-14 0 
    0.284446 6.094106e-03 2.259600e-14 0 
    0.285759 6.025832e-03 2.213800e-14 0 
    0.286418 5.889312e-03 2.153700e-14 0 
    0.287740 5.664510e-03 2.052500e-14 0 
    0.288403 6.154769e-03 2.219900e-14 0 
    0.289734 6.314123e-03 2.256500e-14 0 
    0.290402 6.285925e-03 2.236100e-14 0 
    0.291743 6.389790e-03 2.252200e-14 0 
    0.293089 6.801081e-03 2.375200e-14 0 
    0.295121 6.694810e-03 2.306000e-14 0 
    0.297167 6.651375e-03 2.259600e-14 0 
    0.299227 6.808676e-03 2.281300e-14 0 
    0.301301 6.890073e-03 2.276900e-14 0 
    0.303389 6.988661e-03 2.277800e-14 0 
    0.305492 7.104859e-03 2.283900e-14 0 
    0.306902 7.205446e-03 2.295000e-14 0 
    0.309030 7.308580e-03 2.295900e-14 0 
    0.311172 7.378940e-03 2.286200e-14 0 
    0.313329 7.536573e-03 2.303000e-14 0 
    0.315501 7.504719e-03 2.261800e-14 0 
    0.316957 7.541329e-03 2.252000e-14 0 
    0.319154 7.737910e-03 2.279000e-14 0 
    0.321366 7.547417e-03 2.192400e-14 0 
    0.323594 7.851735e-03 2.249500e-14 0 
    0.325087 7.622106e-03 2.163700e-14 0 
    0.327341 8.208567e-03 2.298200e-14 0 
    0.329610 8.598712e-03 2.374400e-14 0 
    0.331131 8.620871e-03 2.358700e-14 0 
    0.333426 8.644434e-03 2.332700e-14 0 
    0.334195 8.526877e-03 2.290400e-14 0 
    0.334966 8.587210e-03 2.296000e-14 0 
    0.335738 8.890226e-03 2.366100e-14 0 
    0.336512 8.355627e-03 2.213600e-14 0 
    0.337287 9.037295e-03 2.383200e-14 0 
    0.338065 8.731598e-03 2.292000e-14 0 
    0.338844 7.818919e-03 2.043000e-14 0 
    0.339625 7.947280e-03 2.067000e-14 0 
    0.340408 8.795884e-03 2.277200e-14 0 
    0.341193 8.898972e-03 2.293300e-14 0 
    0.341979 8.798121e-03 2.256900e-14 0 
    0.342768 9.214341e-03 2.352800e-14 0 
    0.343558 8.600606e-03 2.186000e-14 0 
    0.344350 8.965601e-03 2.268300e-14 0 
    0.345144 9.239287e-03 2.326800e-14 0 
    0.345939 9.631745e-03 2.414500e-14 0 
    0.346737 9.094338e-03 2.269300e-14 0 
    0.347536 9.307406e-03 2.311800e-14 0 
    0.348337 9.159856e-03 2.264700e-14 0 
    0.349140 9.182225e-03 2.259800e-14 0 
    0.349945 9.616493e-03 2.355800e-14 0 
    0.350752 9.355791e-03 2.281400e-14 0 
    0.351560 9.866132e-03 2.394800e-14 0 
    0.352371 9.230036e-03 2.230100e-14 0 
    0.353183 9.778230e-03 2.351700e-14 0 
    0.353997 9.404388e-03 2.251400e-14 0 
    0.354813 9.963113e-03 2.374200e-14 0 
    0.355631 9.670579e-03 2.293900e-14 0 
    0.356451 1.015103e-02 2.396800e-14 0 
    0.357273 1.053361e-02 2.475700e-14 0 
    0.358096 1.051124e-02 2.459100e-14 0 
    0.358922 1.029698e-02 2.397900e-14 0 
    0.359749 9.699980e-03 2.248500e-14 0 
    0.360579 9.679349e-03 2.233400e-14 0 
    0.361410 8.890241e-03 2.041900e-14 0 
    0.362243 9.953473e-03 2.275600e-14 0 
    0.363078 1.049640e-02 2.388700e-14 0 
    0.363915 9.887531e-03 2.239800e-14 0 
    0.364754 9.843592e-03 2.219600e-14 0 
    0.365595 1.135617e-02 2.548900e-14 0 
    0.366437 1.069778e-02 2.390100e-14 0 
    0.367282 1.072379e-02 2.384900e-14 0 
    0.367405 1.039621e-02 2.310500e-14 1 
    0.367680 6.186230e-03 1.372800e-14 1 
    0.367955 8.511122e-03 1.885900e-14 1 
    0.368230 1.077244e-02 2.383400e-14 1 
    0.368505 1.335689e-02 2.950800e-14 1 
    0.368780 1.507772e-02 3.326000e-14 1 
    0.369055 1.419266e-02 3.126100e-14 1 
    0.369330 1.148118e-02 2.525100e-14 1 
    0.369605 1.165037e-02 2.558500e-14 1 
    0.369880 1.005015e-02 2.203800e-14 1 
    0.370155 1.245190e-02 2.726400e-14 1 
    0.370430 9.346860e-03 2.043500e-14 1 
    0.370705 8.836247e-03 1.929000e-14 1 
    0.370980 1.107707e-02 2.414600e-14 1 
    0.371255 1.103056e-02 2.400900e-14 1 
    0.371530 1.182450e-02 2.569900e-14 1 
    0.371805 1.044027e-02 2.265700e-14 1 
    0.372080 9.757961e-03 2.114500e-14 1 
    0.372355 1.096800e-02 2.373200e-14 1 
    0.372630 6.996809e-03 1.511700e-14 1 
    0.372905 6.046248e-03 1.304400e-14 1 
    0.373180 1.013419e-02 2.183100e-14 1 
    0.373455 1.182276e-02 2.543100e-14 1 
    0.373730 1.006631e-02 2.162100e-14 1 
    0.374005 1.030401e-02 2.209900e-14 1 
    0.374280 1.190400e-02 2.549300e-14 1 
    0.374555 7.478470e-03 1.599200e-14 1 
    0.374830 1.040431e-02 2.221600e-14 1 
    0.375105 1.734033e-02 3.697200e-14 1 
    0.375380 2.924026e-02 6.225300e-14 1 
    0.375655 3.441460e-02 7.316200e-14 1 
    0.375930 3.336032e-02 7.081700e-14 1 
    0.376205 2.113990e-02 4.481000e-14 1 
    0.376480 1.388363e-02 2.938600e-14 1 
    0.376755 1.253842e-02 2.650000e-14 1 
    0.377030 1.049458e-02 2.214800e-14 1 
    0.377305 1.180252e-02 2.487200e-14 1 
    0.377580 9.304375e-03 1.957900e-14 1 
    0.377855 9.031909e-03 1.897800e-14 1 
    0.378130 1.513229e-02 3.175000e-14 1 
    0.378405 1.079942e-02 2.262600e-14 1 
    0.378680 1.134426e-02 2.373300e-14 1 
    0.378955 1.126309e-02 2.352900e-14 1 
    0.379230 1.431970e-02 2.987100e-14 1 
    0.379505 1.177493e-02 2.452700e-14 1 
    0.379780 1.012130e-02 2.105200e-14 1 
    0.380055 1.120868e-02 2.328000e-14 1 
    0.380330 1.168972e-02 2.424400e-14 1 
    0.380605 1.208327e-02 2.502400e-14 1 
    0.380880 1.621249e-02 3.352700e-14 1 
    0.381155 1.814488e-02 3.746900e-14 1 
    0.381430 1.392037e-02 2.870400e-14 1 
    0.381705 1.438678e-02 2.962300e-14 1 
    0.381980 1.378011e-02 2.833300e-14 1 
    0.382255 1.296756e-02 2.662400e-14 1 
    0.382530 1.125272e-02 2.307000e-14 1 
    0.382805 1.077409e-02 2.205700e-14 1 
    0.383080 1.208635e-02 2.470800e-14 1 
    0.383355 1.523398e-02 3.109800e-14 1 
    0.383630 1.384741e-02 2.822700e-14 1 
    0.383905 1.538679e-02 3.132000e-14 1 
    0.384180 1.460790e-02 2.969200e-14 1 
    0.384455 1.658429e-02 3.366100e-14 1 
    0.384730 1.176490e-02 2.384500e-14 1 
    0.385005 1.255894e-02 2.541800e-14 1 
    0.385280 1.060213e-02 2.142700e-14 1 
    0.385555 1.509320e-02 3.046000e-14 1 
    0.385830 1.085572e-02 2.187700e-14 1 
    0.386105 1.341892e-02 2.700400e-14 1 
    0.386380 1.058065e-02 2.126200e-14 1 
    0.386655 1.239323e-02 2.486900e-14 1 
    0.386930 1.071509e-02 2.147100e-14 1 
    0.387205 1.286030e-02 2.573300e-14 1 
    0.387480 1.484742e-02 2.966700e-14 1 
    0.387755 1.227490e-02 2.449200e-14 1 
    0.388030 1.305167e-02 2.600500e-14 1 
    0.388305 1.657985e-02 3.298800e-14 1 
    0.388580 1.779469e-02 3.535500e-14 1 
    0.388855 1.525237e-02 3.026100e-14 1 
    0.389130 1.397728e-02 2.769200e-14 1 
    0.389405 1.764591e-02 3.491100e-14 1 
    0.389680 1.593621e-02 3.148400e-14 1 
    0.389955 1.869891e-02 3.689000e-14 1 
    0.390230 1.757812e-02 3.463000e-14 1 
    0.390505 1.562455e-02 3.073800e-14 1 
    0.390780 1.640248e-02 3.222300e-14 1 
    0.391055 1.591786e-02 3.122700e-14 1 
    0.391330 1.523633e-02 2.984800e-14 1 
    0.391605 1.022312e-02 1.999900e-14 1 
    0.391880 1.123262e-02 2.194300e-14 1 
    0.392155 1.639662e-02 3.198600e-14 1 
    0.392430 1.658235e-02 3.230300e-14 1 
    0.392705 1.257590e-02 2.446400e-14 1 
    0.392980 1.577639e-02 3.064700e-14 1 
    0.393255 1.586807e-02 3.078200e-14 1 
    0.393530 1.566675e-02 3.034900e-14 1 
    0.393805 1.361520e-02 2.633800e-14 1 
    0.394080 1.575302e-02 3.043100e-14 1 
    0.394355 1.672832e-02 3.227000e-14 1 
    0.394630 1.409590e-02 2.715400e-14 1 
    0.394905 1.703442e-02 3.276900e-14 1 
    0.395180 1.591344e-02 3.057000e-14 1 
    0.395455 1.639745e-02 3.145600e-14 1 
    0.395730 1.619424e-02 3.102300e-14 1 
    0.396005 1.276776e-02 2.442500e-14 1 
    0.396280 1.190818e-02 2.274900e-14 1 
    0.396555 1.153367e-02 2.200300e-14 1 
    0.396830 1.305250e-02 2.486600e-14 1 
    0.397105 1.417655e-02 2.697000e-14 1 
    0.397380 1.569265e-02 2.981300e-14 1 
    0.397655 1.474189e-02 2.796800e-14 1 
    0.397930 1.485729e-02 2.814800e-14 1 
    0.398205 1.647936e-02 3.117800e-14 1 
    0.398480 1.686152e-02 3.185700e-14 1 
    0.398755 1.552477e-02 2.929100e-14 1 
    0.399030 1.628447e-02 3.068200e-14 1 
    0.399305 1.418418e-02 2.668800e-14 1 
    0.399580 1.089868e-02 2.047800e-14 1 
    0.399855 1.093660e-02 2.052100e-14 1 
    0.400130 1.150454e-02 2.155700e-14 1 
    0.400405 1.175924e-02 2.200400e-14 1 
    0.400680 1.202906e-02 2.247800e-14 1 
    0.400955 1.394046e-02 2.601400e-14 1 
    0.401230 1.756888e-02 3.274000e-14 1 
    0.401505 1.746455e-02 3.250100e-14 1 
    0.401780 1.799482e-02 3.344200e-14 1 
    0.402055 1.831852e-02 3.399700e-14 1 
    0.402330 1.737614e-02 3.220400e-14 1 
    0.402605 1.844053e-02 3.413000e-14 1 
    0.402880 1.601319e-02 2.959700e-14 1 
    0.403155 1.813879e-02 3.348000e-14 1 
    0.403430 1.804093e-02 3.325400e-14 1 
    0.403705 1.819809e-02 3.349800e-14 1 
    0.403980 1.892193e-02 3.478300e-14 1 
    0.404255 1.869549e-02 3.432000e-14 1 
    0.404530 2.037811e-02 3.735800e-14 1 
    0.404805 2.181672e-02 3.994100e-14 1 
    0.405080 2.035753e-02 3.721900e-14 1 
    0.405355 1.834606e-02 3.349600e-14 1 
    0.405630 1.920515e-02 3.501700e-14 1 
    0.405905 1.977875e-02 3.601400e-14 1 
    0.406180 1.932381e-02 3.513800e-14 1 
    0.406455 1.993096e-02 3.619300e-14 1 
    0.406730 1.955154e-02 3.545600e-14 1 
    0.407005 2.003298e-02 3.628000e-14 1 
    0.407280 1.842396e-02 3.332100e-14 1 
    0.407555 1.914204e-02 3.457300e-14 1 
    0.407830 1.834457e-02 3.308800e-14 1 
    0.408105 2.200010e-02 3.962800e-14 1 
    0.408380 2.159281e-02 3.884200e-14 1 
    0.408655 1.933513e-02 3.473400e-14 1 
    0.408930 1.981936e-02 3.555600e-14 1 
    0.409205 2.218473e-02 3.974600e-14 1 
    0.409480 1.859000e-02 3.326100e-14 1 
    0.409755 1.903585e-02 3.401300e-14 1 
    0.410030 1.998665e-02 3.566400e-14 1 
    0.410305 2.141639e-02 3.816400e-14 1 
    0.410580 1.995152e-02 3.550600e-14 1 
    0.410855 2.047397e-02 3.638700e-14 1 
    0.411130 1.965287e-02 3.488100e-14 1 
    0.411405 1.812824e-02 3.213200e-14 1 
    0.411680 1.888520e-02 3.342900e-14 1 
    0.411955 2.220445e-02 3.925200e-14 1 
    0.412230 2.118731e-02 3.740400e-14 1 
    0.412505 1.930980e-02 3.404400e-14 1 
    0.412780 1.968712e-02 3.466300e-14 1 
    0.413055 2.033895e-02 3.576300e-14 1 
    0.413330 2.070715e-02 3.636200e-14 1 
    0.413605 1.790751e-02 3.140400e-14 1 
    0.413880 1.797644e-02 3.148300e-14 1 
    0.414155 1.849261e-02 3.234400e-14 1 
    0.414430 1.967822e-02 3.437200e-14 1 
    0.414705 1.905942e-02 3.324700e-14 1 
    0.414980 1.711292e-02 2.981200e-14 1 
    0.415255 1.931636e-02 3.360600e-14 1 
    0.415530 1.870309e-02 3.249600e-14 1 
    0.415805 1.872094e-02 3.248400e-14 1 
    0.416080 1.891768e-02 3.278200e-14 1 
    0.416355 1.959912e-02 3.391800e-14 1 
    0.416630 1.963717e-02 3.393900e-14 1 
    0.416905 1.972567e-02 3.404700e-14 1 
    0.417180 2.058651e-02 3.548600e-14 1 
    0.417455 2.006065e-02 3.453400e-14 1 
    0.417730 1.950542e-02 3.353400e-14 1 
    0.418005 2.018867e-02 3.466300e-14 1 
    0.418280 1.835019e-02 3.146500e-14 1 
    0.418555 2.085499e-02 3.571300e-14 1 
    0.418830 2.038948e-02 3.487000e-14 1 
    0.419105 2.251293e-02 3.845100e-14 1 
    0.419380 2.302850e-02 3.928000e-14 1 
    0.419655 2.103168e-02 3.582700e-14 1 
    0.419930 2.047086e-02 3.482600e-14 1 
    0.420205 2.038114e-02 3.462800e-14 1 
    0.420480 2.061469e-02 3.497900e-14 1 
    0.420755 1.993824e-02 3.378700e-14 1 
    0.421030 2.000509e-02 3.385600e-14 1 
    0.421305 1.776931e-02 3.003300e-14 1 
    0.421580 2.225413e-02 3.756400e-14 1 
    0.421855 1.953069e-02 3.292400e-14 1 
    0.422130 2.060038e-02 3.468200e-14 1 
    0.422405 2.028882e-02 3.411300e-14 1 
    0.422680 2.222034e-02 3.731200e-14 1 
    0.422955 2.052714e-02 3.442400e-14 1 
    0.423230 2.058847e-02 3.448200e-14 1 
    0.423505 1.920370e-02 3.212100e-14 1 
    0.423780 2.171835e-02 3.628000e-14 1 
    0.424055 2.011436e-02 3.355700e-14 1 
    0.424330 2.097712e-02 3.495100e-14 1 
    0.424605 1.996885e-02 3.322800e-14 1 
    0.424880 1.908549e-02 3.171700e-14 1 
    0.425155 1.998567e-02 3.317000e-14 1 
    0.425430 2.120547e-02 3.514900e-14 1 
    0.425705 2.259752e-02 3.740800e-14 1 
    0.425980 1.988548e-02 3.287600e-14 1 
    0.426255 2.111700e-02 3.486700e-14 1 
    0.426530 2.367972e-02 3.904800e-14 1 
    0.426805 2.268105e-02 3.735300e-14 1 
    0.427080 1.982051e-02 3.260000e-14 1 
    0.427355 2.062710e-02 3.388300e-14 1 
    0.427630 2.227934e-02 3.655000e-14 1 
    0.427905 2.189420e-02 3.587200e-14 1 
    0.428180 2.360295e-02 3.862200e-14 1 
    0.428455 1.968828e-02 3.217500e-14 1 
    0.428730 2.154736e-02 3.516800e-14 1 
    0.429005 2.000143e-02 3.260300e-14 1 
    0.429280 2.163217e-02 3.521600e-14 1 
    0.429555 2.076191e-02 3.375600e-14 1 
    0.429830 2.213782e-02 3.594700e-14 1 
    0.430105 2.088294e-02 3.386600e-14 1 
    0.430380 2.033112e-02 3.292900e-14 1 
    0.430655 2.192738e-02 3.546900e-14 1 
    0.430930 2.104917e-02 3.400500e-14 1 
    0.431205 2.251396e-02 3.632500e-14 1 
    0.431480 1.986735e-02 3.201400e-14 1 
    0.431755 2.028167e-02 3.264000e-14 1 
    0.432030 2.008913e-02 3.228900e-14 1 
    0.432305 2.156870e-02 3.462300e-14 1 
    0.432580 2.055199e-02 3.294900e-14 1 
    0.432855 1.906048e-02 3.051900e-14 1 
    0.433130 2.087443e-02 3.338100e-14 1 
    0.433405 1.828809e-02 2.920800e-14 1 
    0.433680 1.820661e-02 2.904100e-14 1 
    0.433955 2.054098e-02 3.272300e-14 1 
    0.434230 2.023705e-02 3.219800e-14 1 
    0.434505 1.909217e-02 3.033800e-14 1 
    0.434780 2.126061e-02 3.374100e-14 1 
    0.435055 2.180045e-02 3.455400e-14 1 
    0.435330 2.120452e-02 3.356700e-14 1 
    0.435605 1.956213e-02 3.092800e-14 1 
    0.435880 2.015112e-02 3.181900e-14 1 
    0.436155 1.889630e-02 2.980000e-14 1 
    0.436430 1.912140e-02 3.011700e-14 1 
    0.436705 2.311547e-02 3.636200e-14 1 
    0.436980 2.318342e-02 3.642300e-14 1 
    0.437255 2.401817e-02 3.768700e-14 1 
    0.437530 2.471074e-02 3.872500e-14 1 
    0.437805 2.355344e-02 3.686500e-14 1 
    0.438080 2.089944e-02 3.267000e-14 1 
    0.438355 1.996427e-02 3.116900e-14 1 
    0.438630 1.989698e-02 3.102500e-14 1 
    0.438905 2.125114e-02 3.309500e-14 1 
    0.439180 2.272565e-02 3.534700e-14 1 
    0.439455 2.417742e-02 3.755800e-14 1 
    0.439730 2.318802e-02 3.597600e-14 1 
    0.440005 2.299246e-02 3.562800e-14 1 
    0.440280 2.298825e-02 3.557700e-14 1 
    0.440555 2.269091e-02 3.507300e-14 1 
    0.440830 2.204362e-02 3.403000e-14 1 
    0.441105 2.265615e-02 3.493200e-14 1 
    0.441380 2.377603e-02 3.661300e-14 1 
    0.441655 2.232452e-02 3.433500e-14 1 
    0.441930 2.050737e-02 3.150100e-14 1 
    0.442205 2.138352e-02 3.280600e-14 1 
    0.442480 2.174362e-02 3.331700e-14 1 
    0.442755 2.298671e-02 3.517800e-14 1 
    0.443030 2.276731e-02 3.479900e-14 1 
    0.443305 2.210122e-02 3.373900e-14 1 
    0.443580 2.194500e-02 3.345900e-14 1 
    0.443855 2.229925e-02 3.395700e-14 1 
    0.444130 2.311787e-02 3.516000e-14 1 
    0.444405 2.396940e-02 3.641000e-14 1 
    0.444680 2.548081e-02 3.865800e-14 1 
    0.444955 2.518830e-02 3.816700e-14 1 
    0.445230 2.458710e-02 3.721000e-14 1 
    0.445505 2.484638e-02 3.755600e-14 1 
    0.445780 2.470550e-02 3.729700e-14 1 
    0.446055 2.588005e-02 3.902200e-14 1 
    0.446330 2.442851e-02 3.678800e-14 1 
    0.446605 2.501976e-02 3.763200e-14 1 
    0.446880 2.233597e-02 3.355400e-14 1 
    0.447155 2.255875e-02 3.384700e-14 1 
    0.447430 2.427948e-02 3.638400e-14 1 
    0.447705 2.584136e-02 3.867700e-14 1 
    0.447980 2.514730e-02 3.759200e-14 1 
    0.448255 2.232360e-02 3.333000e-14 1 
    0.448530 2.376797e-02 3.544300e-14 1 
    0.448805 2.447325e-02 3.645000e-14 1 
    0.449080 2.497718e-02 3.715500e-14 1 
    0.449355 2.511884e-02 3.732000e-14 1 
    0.449630 2.362660e-02 3.506000e-14 1 
    0.449905 2.290657e-02 3.395000e-14 1 
    0.450180 2.464302e-02 3.647900e-14 1 
    0.450455 2.639449e-02 3.902400e-14 1 
    0.450730 2.814612e-02 4.156300e-14 1 
    0.451005 2.509346e-02 3.701000e-14 1 
    0.451280 2.683340e-02 3.952800e-14 1 
    0.451555 2.634548e-02 3.876200e-14 1 
    0.451830 2.541876e-02 3.735300e-14 1 
    0.452105 2.577879e-02 3.783600e-14 1 
    0.452380 2.591521e-02 3.799000e-14 1 
    0.452655 2.453226e-02 3.591900e-14 1 
    0.452930 2.504896e-02 3.663100e-14 1 
    0.453205 2.583387e-02 3.773300e-14 1 
    0.453480 2.572882e-02 3.753400e-14 1 
    0.453755 2.603730e-02 3.793800e-14 1 
    0.454030 2.714563e-02 3.950500e-14 1 
    0.454305 2.606193e-02 3.788200e-14 1 
    0.454580 2.586963e-02 3.755700e-14 1 
    0.454855 2.642852e-02 3.832200e-14 1 
    0.455130 2.640594e-02 3.824300e-14 1 
    0.455405 2.548039e-02 3.685800e-14 1 
    0.455680 2.520732e-02 3.641900e-14 1 
    0.455955 2.479147e-02 3.577500e-14 1 
    0.456230 2.533551e-02 3.651600e-14 1 
    0.456505 2.595860e-02 3.736900e-14 1 
    0.456780 2.469766e-02 3.551100e-14 1 
    0.457055 2.650235e-02 3.806000e-14 1 
    0.457330 2.765181e-02 3.966300e-14 1 
    0.457605 2.751407e-02 3.941800e-14 1 
    0.457880 2.766176e-02 3.958200e-14 1 
    0.458155 2.631102e-02 3.760400e-14 1 
    0.458430 2.714261e-02 3.874600e-14 1 
    0.458705 2.697600e-02 3.846200e-14 1 
    0.458980 2.741002e-02 3.903400e-14 1 
    0.459255 2.734655e-02 3.889700e-14 1 
    0.459530 2.699147e-02 3.834600e-14 1 
    0.459805 2.581728e-02 3.663400e-14 1 
    0.460080 2.508332e-02 3.555000e-14 1 
    0.460355 2.489644e-02 3.524300e-14 1 
    0.460630 2.525932e-02 3.571400e-14 1 
    0.460905 2.702153e-02 3.816000e-14 1 
    0.461180 2.733524e-02 3.855700e-14 1 
    0.461455 2.569555e-02 3.620100e-14 1 
    0.461730 2.506813e-02 3.527500e-14 1 
    0.462005 2.566293e-02 3.606900e-14 1 
    0.462280 2.811189e-02 3.946400e-14 1 
    0.462555 2.817458e-02 3.950500e-14 1 
    0.462830 2.595888e-02 3.635500e-14 1 
    0.463105 2.579671e-02 3.608500e-14 1 
    0.463380 2.805831e-02 3.920200e-14 1 
    0.463655 3.040405e-02 4.242900e-14 1 
    0.463930 2.864725e-02 3.993000e-14 1 
    0.464205 2.801681e-02 3.900500e-14 1 
    0.464480 2.883603e-02 4.009800e-14 1 
    0.464755 2.954698e-02 4.103800e-14 1 
    0.465030 2.955024e-02 4.099400e-14 1 
    0.465305 2.891185e-02 4.006100e-14 1 
    0.465580 2.770325e-02 3.834100e-14 1 
    0.465855 2.747557e-02 3.798100e-14 1 
    0.466130 2.881602e-02 3.978700e-14 1 
    0.466405 2.979485e-02 4.109000e-14 1 
    0.466680 2.865756e-02 3.947500e-14 1 
    0.466955 2.924010e-02 4.023000e-14 1 
    0.467230 2.514206e-02 3.455100e-14 1 
    0.467505 2.673146e-02 3.669200e-14 1 
    0.467780 2.843760e-02 3.898800e-14 1 
    0.468055 2.706020e-02 3.705600e-14 1 
    0.468330 2.752994e-02 3.765500e-14 1 
    0.468605 2.868293e-02 3.918600e-14 1 
    0.468880 2.915483e-02 3.978400e-14 1 
    0.469155 2.998509e-02 4.086900e-14 1 
    0.469430 2.973966e-02 4.048700e-14 1 
    0.469705 2.934724e-02 3.990600e-14 1 
    0.469980 2.819990e-02 3.830100e-14 1 
    0.470255 2.715817e-02 3.684300e-14 1 
    0.470530 2.521655e-02 3.416900e-14 1 
    0.470805 2.629078e-02 3.558300e-14 1 
    0.471080 2.750283e-02 3.718000e-14 1 
    0.471355 2.468296e-02 3.332900e-14 1 
    0.471630 2.766719e-02 3.731500e-14 1 
    0.471905 2.862810e-02 3.856600e-14 1 
    0.472180 3.047855e-02 4.101100e-14 1 
    0.472455 3.092328e-02 4.156100e-14 1 
    0.472730 2.817183e-02 3.781900e-14 1 
    0.473005 2.838286e-02 3.805800e-14 1 
    0.473280 2.859731e-02 3.830100e-14 1 
    0.473555 2.654349e-02 3.550900e-14 1 
    0.473830 2.768717e-02 3.699600e-14 1 
    0.474105 2.652276e-02 3.539900e-14 1 
    0.474380 2.618898e-02 3.491300e-14 1 
    0.474655 2.670750e-02 3.556300e-14 1 
    0.474930 2.956094e-02 3.931700e-14 1 
    0.475205 2.891472e-02 3.841300e-14 1 
    0.475480 3.058653e-02 4.058700e-14 1 
    0.475755 2.972937e-02 3.940400e-14 1 
    0.476030 2.931054e-02 3.880400e-14 1 
    0.476305 2.772459e-02 3.666200e-14 1 
    0.476580 2.775661e-02 3.666200e-14 1 
    0.476855 2.928110e-02 3.863100e-14 1 
    0.477130 2.911151e-02 3.836300e-14 1 
    0.477405 2.905543e-02 3.824500e-14 1 
    0.477680 2.777309e-02 3.651500e-14 1 
    0.477955 2.946812e-02 3.869900e-14 1 
    0.478230 2.992438e-02 3.925300e-14 1 
    0.478505 3.185618e-02 4.173900e-14 1 
    0.478780 3.000319e-02 3.926600e-14 1 
    0.479055 2.860409e-02 3.739200e-14 1 
    0.479330 2.918529e-02 3.810800e-14 1 
    0.479605 2.836388e-02 3.699300e-14 1 
    0.479880 2.963996e-02 3.861300e-14 1 
    0.480155 2.786259e-02 3.625600e-14 1 
    0.480430 2.684816e-02 3.489600e-14 1 
    0.480705 2.716621e-02 3.526900e-14 1 
    0.480980 3.012378e-02 3.906400e-14 1 
    0.481255 3.019761e-02 3.911500e-14 1 
    0.481530 3.034265e-02 3.925800e-14 1 
    0.481805 3.013667e-02 3.894700e-14 1 
    0.482080 2.651154e-02 3.422300e-14 1 
    0.482355 2.929967e-02 3.777900e-14 1 
    0.482630 2.821191e-02 3.633500e-14 1 
    0.482905 2.748929e-02 3.536400e-14 1 
    0.483180 2.997196e-02 3.851400e-14 1 
    0.483455 2.898236e-02 3.720000e-14 1 
    0.483730 2.960189e-02 3.795200e-14 1 
    0.484005 2.753345e-02 3.526000e-14 1 
    0.484280 2.948475e-02 3.771600e-14 1 
    0.484555 2.968808e-02 3.793300e-14 1 
    0.484830 3.145418e-02 4.014400e-14 1 
    0.485105 3.185933e-02 4.061500e-14 1 
    0.485380 3.016228e-02 3.840800e-14 1 
    0.485655 2.860362e-02 3.638200e-14 1 
    0.485930 3.145224e-02 3.996000e-14 1 
    0.486205 2.950371e-02 3.744200e-14 1 
    0.486480 3.134914e-02 3.973900e-14 1 
    0.486755 3.016045e-02 3.818900e-14 1 
    0.487030 2.933667e-02 3.710400e-14 1 
    0.487305 2.812707e-02 3.553400e-14 1 
    0.487580 3.202359e-02 4.041100e-14 1 
    0.487855 2.889985e-02 3.642800e-14 1 
    0.488130 3.026517e-02 3.810600e-14 1 
    0.488405 2.918212e-02 3.670100e-14 1 
    0.488680 3.049182e-02 3.830500e-14 1 
    0.488955 3.006233e-02 3.772300e-14 1 
    0.489230 3.524130e-02 4.417200e-14 1 
    0.489505 4.075854e-02 5.103000e-14 1 
    0.489780 5.019661e-02 6.277600e-14 1 
    0.490055 4.641694e-02 5.798400e-14 1 
    0.490330 3.932286e-02 4.906700e-14 1 
    0.490605 3.129012e-02 3.900000e-14 1 
    0.490880 2.975011e-02 3.703900e-14 1 
    0.491155 2.858935e-02 3.555400e-14 1 
    0.491430 2.994562e-02 3.719900e-14 1 
    0.491705 2.880735e-02 3.574500e-14 1 
    0.491980 2.743007e-02 3.399800e-14 1 
    0.492255 2.865778e-02 3.548000e-14 1 
    0.492530 2.929466e-02 3.622800e-14 1 
    0.492805 2.923348e-02 3.611200e-14 1 
    0.493080 2.968834e-02 3.663300e-14 1 
    0.493355 2.965575e-02 3.655200e-14 1 
    0.493630 3.125563e-02 3.848100e-14 1 
    0.493905 2.975606e-02 3.659400e-14 1 
    0.494180 3.017751e-02 3.707100e-14 1 
    0.494455 3.126321e-02 3.836200e-14 1 
    0.494730 2.841148e-02 3.482400e-14 1 
    0.495005 2.933090e-02 3.591100e-14 1 
    0.495280 2.879767e-02 3.521900e-14 1 
    0.495555 2.580336e-02 3.152200e-14 1 
    0.495830 2.786024e-02 3.399700e-14 1 
    0.496105 3.010706e-02 3.669800e-14 1 
    0.496380 3.084020e-02 3.755000e-14 1 
    0.496655 3.023798e-02 3.677600e-14 1 
    0.496930 2.884252e-02 3.504000e-14 1 
    0.497205 2.944964e-02 3.573800e-14 1 
    0.497480 3.002091e-02 3.639100e-14 1 
    0.497755 2.761864e-02 3.344200e-14 1 
    0.498030 3.070742e-02 3.714100e-14 1 
    0.498305 3.059484e-02 3.696400e-14 1 
    0.498580 3.145722e-02 3.796400e-14 1 
    0.498855 3.228164e-02 3.891600e-14 1 
    0.499130 3.427541e-02 4.127400e-14 1 
    0.499405 3.477292e-02 4.182700e-14 1 
    0.499680 3.624190e-02 4.354600e-14 1 
    0.499955 3.309737e-02 3.972400e-14 1 
    0.500230 3.303286e-02 3.960300e-14 1 
    0.500505 3.179496e-02 3.807700e-14 1 
    0.500780 3.278538e-02 3.922000e-14 1 
    0.501055 3.085898e-02 3.687500e-14 1 
    0.501330 3.197778e-02 3.817000e-14 1 
    0.501605 3.304530e-02 3.940100e-14 1 
    0.501880 2.940740e-02 3.502500e-14 1 
    0.502155 2.917151e-02 3.470600e-14 1 
    0.502430 2.986317e-02 3.549000e-14 1 
    0.502705 2.898694e-02 3.441100e-14 1 
    0.502980 2.988810e-02 3.544200e-14 1 
    0.503255 3.132642e-02 3.710700e-14 1 
    0.503530 3.199790e-02 3.786100e-14 1 
    0.503805 3.423178e-02 4.046000e-14 1 
    0.504080 3.875820e-02 4.576000e-14 1 
    0.504355 4.593824e-02 5.417800e-14 1 
    0.504630 4.525156e-02 5.331000e-14 1 
    0.504905 4.006125e-02 4.714400e-14 1 
    0.505180 3.425726e-02 4.027000e-14 1 
    0.505455 2.762216e-02 3.243500e-14 1 
    0.505730 2.825156e-02 3.313800e-14 1 
    0.506005 2.953263e-02 3.460300e-14 1 
    0.506280 2.932294e-02 3.432000e-14 1 
    0.506555 3.184466e-02 3.723100e-14 1 
    0.506830 3.201282e-02 3.738700e-14 1 
    0.507105 3.258245e-02 3.801100e-14 1 
    0.507380 3.093847e-02 3.605400e-14 1 
    0.507655 2.893780e-02 3.368600e-14 1 
    0.507930 2.679342e-02 3.115600e-14 1 
    0.508205 3.013349e-02 3.500200e-14 1 
    0.508480 2.953783e-02 3.427300e-14 1 
    0.508755 2.979842e-02 3.453800e-14 1 
    0.509030 3.183790e-02 3.686200e-14 1 
    0.509305 3.129905e-02 3.619900e-14 1 
    0.509580 3.103424e-02 3.585400e-14 1 
    0.509855 3.336052e-02 3.850000e-14 1 
    0.510130 3.126781e-02 3.604600e-14 1 
    0.510405 3.073188e-02 3.539000e-14 1 
    0.510680 3.141525e-02 3.613800e-14 1 
    0.510955 3.061365e-02 3.517800e-14 1 
    0.511230 2.970835e-02 3.410100e-14 1 
    0.511505 3.316341e-02 3.802600e-14 1 
    0.511780 3.296509e-02 3.775800e-14 1 
    0.512055 3.091691e-02 3.537400e-14 1 
    0.512330 2.932624e-02 3.351800e-14 1 
    0.512605 3.076527e-02 3.512500e-14 1 
    0.512880 3.189782e-02 3.637900e-14 1 
    0.513155 3.339087e-02 3.804100e-14 1 
    0.513430 3.293372e-02 3.748000e-14 1 
    0.513705 3.234534e-02 3.677100e-14 1 
    0.513980 3.114716e-02 3.537100e-14 1 
    0.514255 3.096893e-02 3.513100e-14 1 
    0.514530 3.299380e-02 3.738800e-14 1 
    0.514805 2.981345e-02 3.374800e-14 1 
    0.515080 3.090919e-02 3.495100e-14 1 
    0.515355 3.277213e-02 3.701800e-14 1 
    0.515630 3.415066e-02 3.853400e-14 1 
    0.515905 3.104378e-02 3.499100e-14 1 
    0.516180 3.177052e-02 3.577200e-14 1 
    0.516455 2.866502e-02 3.224100e-14 1 
    0.516730 3.086723e-02 3.468100e-14 1 
    0.517005 3.017573e-02 3.386800e-14 1 
    0.517280 3.183739e-02 3.569500e-14 1 
    0.517555 3.193643e-02 3.576800e-14 1 
    0.517830 3.166201e-02 3.542300e-14 1 
    0.518105 3.144690e-02 3.514500e-14 1 
    0.518380 2.926516e-02 3.267200e-14 1 
    0.518655 3.105908e-02 3.463800e-14 1 
    0.518930 3.099778e-02 3.453300e-14 1 
    0.519205 3.258968e-02 3.626800e-14 1 
    0.519480 2.919340e-02 3.245400e-14 1 
    0.519755 3.115855e-02 3.460200e-14 1 
    0.520030 3.448358e-02 3.825400e-14 1 
    0.520305 3.200510e-02 3.546700e-14 1 
    0.520580 2.701725e-02 2.990800e-14 1 
    0.520855 2.655748e-02 2.936800e-14 1 
    0.521130 2.726537e-02 3.011900e-14 1 
    0.521405 2.948900e-02 3.254100e-14 1 
    0.521680 2.942214e-02 3.243300e-14 1 
    0.521955 2.950947e-02 3.249500e-14 1 
    0.522230 3.084328e-02 3.392800e-14 1 
    0.522505 2.956441e-02 3.248700e-14 1 
    0.522780 2.991165e-02 3.283400e-14 1 
    0.523055 3.189015e-02 3.496900e-14 1 
    0.523330 3.164708e-02 3.466600e-14 1 
    0.523605 3.348525e-02 3.664100e-14 1 
    0.523880 3.339236e-02 3.650100e-14 1 
    0.524155 3.368476e-02 3.678200e-14 1 
    0.524430 3.352852e-02 3.657300e-14 1 
    0.524705 3.007178e-02 3.276800e-14 1 
    0.524980 3.164117e-02 3.444200e-14 1 
    0.525255 3.131935e-02 3.405600e-14 1 
    0.525530 3.154272e-02 3.426300e-14 1 
    0.525805 3.183839e-02 3.454800e-14 1 
    0.526080 3.222872e-02 3.493500e-14 1 
    0.526355 3.223379e-02 3.490400e-14 1 
    0.526630 3.106753e-02 3.360600e-14 1 
    0.526905 3.308780e-02 3.575400e-14 1 
    0.527180 3.252390e-02 3.510800e-14 1 
    0.527455 3.184748e-02 3.434200e-14 1 
    0.527730 3.460813e-02 3.728000e-14 1 
    0.528005 3.384873e-02 3.642400e-14 1 
    0.528280 3.395842e-02 3.650400e-14 1 
    0.528555 3.420331e-02 3.672900e-14 1 
    0.528830 3.221137e-02 3.455400e-14 1 
    0.529105 3.490442e-02 3.740400e-14 1 
    0.529380 3.189728e-02 3.414600e-14 1 
    0.529655 3.174995e-02 3.395300e-14 1 
    0.529930 3.332466e-02 3.560000e-14 1 
    0.530205 3.135208e-02 3.345800e-14 1 
    0.530480 3.315936e-02 3.535000e-14 1 
    0.530755 2.890532e-02 3.078300e-14 1 
    0.531030 2.866739e-02 3.049800e-14 1 
    0.531305 3.217390e-02 3.419300e-14 1 
    0.531580 3.291931e-02 3.494900e-14 1 
    0.531855 3.215192e-02 3.409900e-14 1 
    0.532130 3.257594e-02 3.451300e-14 1 
    0.532405 3.304141e-02 3.497000e-14 1 
    0.532680 3.255818e-02 3.442300e-14 1 
    0.532955 3.610919e-02 3.813800e-14 1 
    0.533230 3.592468e-02 3.790400e-14 1 
    0.533505 3.379478e-02 3.562000e-14 1 
    0.533780 3.454858e-02 3.637700e-14 1 
    0.534055 3.679175e-02 3.869900e-14 1 
    0.534330 3.337119e-02 3.506500e-14 1 
    0.534605 3.536901e-02 3.712600e-14 1 
    0.534880 3.962629e-02 4.155200e-14 1 
    0.535155 3.664275e-02 3.838400e-14 1 
    0.535430 3.255789e-02 3.407000e-14 1 
    0.535705 3.363116e-02 3.515700e-14 1 
    0.535980 3.372507e-02 3.521900e-14 1 
    0.536255 3.339256e-02 3.483600e-14 1 
    0.536530 3.202204e-02 3.337200e-14 1 
    0.536805 3.412674e-02 3.552900e-14 1 
    0.537080 3.267714e-02 3.398500e-14 1 
    0.537355 3.445947e-02 3.580200e-14 1 
    0.537630 3.556711e-02 3.691500e-14 1 
    0.537905 3.558036e-02 3.689100e-14 1 
    0.538180 3.507995e-02 3.633500e-14 1 
    0.538455 3.619726e-02 3.745400e-14 1 
    0.538730 3.600013e-02 3.721200e-14 1 
    0.539005 3.659954e-02 3.779300e-14 1 
    0.539280 3.532432e-02 3.643900e-14 1 
    0.539555 3.349816e-02 3.452000e-14 1 
    0.539830 3.783848e-02 3.895300e-14 1 
    0.540105 3.714775e-02 3.820300e-14 1 
    0.540380 3.651299e-02 3.751200e-14 1 
    0.540655 3.583401e-02 3.677700e-14 1 
    0.540930 3.539646e-02 3.629100e-14 1 
    0.541205 3.624380e-02 3.712200e-14 1 
    0.541480 3.346200e-02 3.423800e-14 1 
    0.541755 3.408006e-02 3.483500e-14 1 
    0.542030 3.467190e-02 3.540400e-14 1 
    0.542305 3.529038e-02 3.599900e-14 1 
    0.542580 3.561469e-02 3.629300e-14 1 
    0.542855 3.662328e-02 3.728300e-14 1 
    0.543130 3.625823e-02 3.687400e-14 1 
    0.543405 3.474567e-02 3.530000e-14 1 
    0.543680 3.481336e-02 3.533300e-14 1 
    0.543955 3.188873e-02 3.233200e-14 1 
    0.544230 3.480485e-02 3.525300e-14 1 
    0.544505 3.409585e-02 3.450000e-14 1 
    0.544780 3.592684e-02 3.631600e-14 1 
    0.545055 3.716929e-02 3.753400e-14 1 
    0.545330 3.600041e-02 3.631700e-14 1 
    0.545605 3.583629e-02 3.611500e-14 1 
    0.545880 3.973232e-02 4.000100e-14 1 
    0.546155 3.720512e-02 3.741900e-14 1 
    0.546430 3.777508e-02 3.795400e-14 1 
    0.546705 3.641532e-02 3.655100e-14 1 
    0.546980 3.409137e-02 3.418400e-14 1 
    0.547255 3.538850e-02 3.544900e-14 1 
    0.547530 3.545805e-02 3.548300e-14 1 
    0.547805 3.485149e-02 3.484100e-14 1 
    0.548080 3.438383e-02 3.433900e-14 1 
    0.548355 3.538056e-02 3.529900e-14 1 
    0.548630 3.621570e-02 3.609600e-14 1 
    0.548905 3.678531e-02 3.662700e-14 1 
    0.549180 3.621396e-02 3.602200e-14 1 
    0.549455 3.552667e-02 3.530300e-14 1 
    0.549730 3.525199e-02 3.499500e-14 1 
    0.550005 3.732817e-02 3.701900e-14 1 
    0.550280 3.684972e-02 3.650800e-14 1 
    0.550555 3.519925e-02 3.483800e-14 1 
    0.550830 3.608903e-02 3.568300e-14 1 
    0.551105 3.831993e-02 3.785100e-14 1 
    0.551380 3.714414e-02 3.665300e-14 1 
    0.551655 3.835284e-02 3.780800e-14 1 
    0.551930 3.510518e-02 3.457200e-14 1 
    0.552205 3.709681e-02 3.649700e-14 1 
    0.552480 3.759670e-02 3.695200e-14 1 
    0.552755 3.757304e-02 3.689200e-14 1 
    0.553030 3.589568e-02 3.521000e-14 1 
    0.553305 3.807237e-02 3.730800e-14 1 
    0.553580 3.701824e-02 3.623900e-14 1 
    0.553855 3.743846e-02 3.661400e-14 1 
    0.554130 3.576431e-02 3.494200e-14 1 
    0.554405 3.465437e-02 3.382400e-14 1 
    0.554680 3.602917e-02 3.513100e-14 1 
    0.554955 3.494182e-02 3.403700e-14 1 
    0.555230 3.647881e-02 3.549900e-14 1 
    0.555505 3.671965e-02 3.569800e-14 1 
    0.555780 3.616295e-02 3.512200e-14 1 
    0.556055 3.767670e-02 3.655600e-14 1 
    0.556330 3.849289e-02 3.731100e-14 1 
    0.556605 3.698707e-02 3.581600e-14 1 
    0.556880 3.634965e-02 3.516400e-14 1 
    0.557155 3.937492e-02 3.805300e-14 1 
    0.557430 3.717241e-02 3.588900e-14 1 
    0.557705 3.775238e-02 3.641300e-14 1 
    0.557980 3.812690e-02 3.673800e-14 1 
    0.558255 3.800555e-02 3.658500e-14 1 
    0.558530 3.827073e-02 3.680400e-14 1 
    0.558805 3.637760e-02 3.494900e-14 1 
    0.559080 3.704168e-02 3.555200e-14 1 
    0.559355 3.794376e-02 3.638200e-14 1 
    0.559630 3.634834e-02 3.481800e-14 1 
    0.559905 3.964126e-02 3.793500e-14 1 
    0.560180 3.818338e-02 3.650400e-14 1 
    0.560455 3.820308e-02 3.648700e-14 1 
    0.560730 3.682570e-02 3.513700e-14 1 
    0.561005 3.944888e-02 3.760300e-14 1 
    0.561280 3.821692e-02 3.639300e-14 1 
    0.561555 3.833322e-02 3.646800e-14 1 
    0.561830 3.918305e-02 3.724000e-14 1 
    0.562105 3.902658e-02 3.705500e-14 1 
    0.562380 3.977532e-02 3.772900e-14 1 
    0.562655 3.694707e-02 3.501200e-14 1 
    0.562930 3.574521e-02 3.384000e-14 1 
    0.563205 3.386531e-02 3.202900e-14 1 
    0.563480 3.547006e-02 3.351400e-14 1 
    0.563755 3.580239e-02 3.379500e-14 1 
    0.564030 3.586914e-02 3.382500e-14 1 
    0.564305 3.663547e-02 3.451400e-14 1 
    0.564580 3.833932e-02 3.608400e-14 1 
    0.564855 3.900735e-02 3.667700e-14 1 
    0.565130 3.947436e-02 3.708000e-14 1 
    0.565405 3.930287e-02 3.688300e-14 1 
    0.565680 3.857953e-02 3.616900e-14 1 
    0.565955 4.127024e-02 3.865400e-14 1 
    0.566230 3.736464e-02 3.496200e-14 1 
    0.566505 3.928371e-02 3.672200e-14 1 
    0.566780 4.001039e-02 3.736500e-14 1 
    0.567055 4.100638e-02 3.825800e-14 1 
    0.567330 3.951838e-02 3.683400e-14 1 
    0.567605 3.846345e-02 3.581600e-14 1 
    0.567880 3.793960e-02 3.529400e-14 1 
    0.568155 3.926863e-02 3.649500e-14 1 
    0.568430 3.908586e-02 3.629000e-14 1 
    0.568705 3.860189e-02 3.580600e-14 1 
    0.568980 3.897377e-02 3.611600e-14 1 
    0.569255 3.902765e-02 3.613100e-14 1 
    0.569530 4.001359e-02 3.700800e-14 1 
    0.569805 4.043536e-02 3.736200e-14 1 
    0.570080 3.711183e-02 3.425800e-14 1 
    0.570355 3.688198e-02 3.401300e-14 1 
    0.570630 3.617948e-02 3.333300e-14 1 
    0.570905 3.803524e-02 3.500900e-14 1 
    0.571180 4.015225e-02 3.692200e-14 1 
    0.571455 3.907517e-02 3.589700e-14 1 
    0.571730 3.829016e-02 3.514200e-14 1 
    0.572005 3.900538e-02 3.576400e-14 1 
    0.572280 3.984964e-02 3.650300e-14 1 
    0.572555 3.815269e-02 3.491500e-14 1 
    0.572830 3.664821e-02 3.350600e-14 1 
    0.573105 3.838806e-02 3.506300e-14 1 
    0.573380 3.759861e-02 3.430900e-14 1 
    0.573655 3.824788e-02 3.486800e-14 1 
    0.573930 3.937266e-02 3.585900e-14 1 
    0.574205 3.977418e-02 3.619000e-14 1 
    0.574480 3.770451e-02 3.427400e-14 1 
    0.574755 3.904878e-02 3.546200e-14 1 
    0.575030 3.977503e-02 3.608700e-14 1 
    0.575305 3.739475e-02 3.389500e-14 1 
    0.575580 4.004772e-02 3.626500e-14 1 
    0.575855 4.339324e-02 3.925700e-14 1 
    0.576130 4.172418e-02 3.771100e-14 1 
    0.576405 4.138304e-02 3.736700e-14 1 
    0.576680 4.053128e-02 3.656300e-14 1 
    0.576955 3.926174e-02 3.538400e-14 1 
    0.577230 3.840177e-02 3.457600e-14 1 
    0.577505 3.967347e-02 3.568700e-14 1 
    0.577780 4.018976e-02 3.611700e-14 1 
    0.578055 3.941159e-02 3.538400e-14 1 
    0.578330 4.099545e-02 3.677100e-14 1 
    0.578605 3.991292e-02 3.576600e-14 1 
    0.578880 4.005698e-02 3.586100e-14 1 
    0.579155 4.182470e-02 3.740800e-14 1 
    0.579430 4.172789e-02 3.728600e-14 1 
    0.579705 4.208004e-02 3.756500e-14 1 
    0.579980 4.442865e-02 3.962400e-14 1 
    0.580255 4.141022e-02 3.689700e-14 1 
    0.580530 4.085858e-02 3.637100e-14 1 
    0.580805 4.196553e-02 3.732100e-14 1 
    0.581080 3.862648e-02 3.431900e-14 1 
    0.581355 3.901117e-02 3.462800e-14 1 
    0.581630 3.826550e-02 3.393400e-14 1 
    0.581905 4.132890e-02 3.661600e-14 1 
    0.582180 3.942249e-02 3.489400e-14 1 
    0.582455 3.992791e-02 3.530800e-14 1 
    0.582730 3.905896e-02 3.450700e-14 1 
    0.583005 4.067181e-02 3.589800e-14 1 
    0.583280 4.141103e-02 3.651600e-14 1 
    0.583555 4.088707e-02 3.602000e-14 1 
    0.583830 4.077451e-02 3.588700e-14 1 
    0.584105 4.023406e-02 3.537800e-14 1 
    0.584380 4.143533e-02 3.640000e-14 1 
    0.584655 4.004552e-02 3.514600e-14 1 
    0.584930 4.089180e-02 3.585500e-14 1 
    0.585205 4.176816e-02 3.658900e-14 1 
    0.585480 4.191254e-02 3.668100e-14 1 
    0.585755 4.378984e-02 3.828800e-14 1 
    0.586030 3.839789e-02 3.354200e-14 1 
    0.586305 4.268273e-02 3.725000e-14 1 
    0.586580 4.240164e-02 3.697000e-14 1 
    0.586855 4.363188e-02 3.800700e-14 1 
    0.587130 4.243178e-02 3.692700e-14 1 
    0.587405 4.143641e-02 3.602700e-14 1 
    0.587680 4.433947e-02 3.851500e-14 1 
    0.587955 4.538232e-02 3.938400e-14 1 
    0.588230 4.266590e-02 3.699200e-14 1 
    0.588505 4.238948e-02 3.671800e-14 1 
    0.588780 4.360428e-02 3.773500e-14 1 
    0.589055 3.832689e-02 3.313700e-14 1 
    0.589330 4.098603e-02 3.540300e-14 1 
    0.589605 4.197913e-02 3.622700e-14 1 
    0.589880 4.063342e-02 3.503300e-14 1 
    0.590155 4.149326e-02 3.574100e-14 1 
    0.590430 4.125306e-02 3.550100e-14 1 
    0.590705 4.126241e-02 3.547600e-14 1 
    0.590980 4.361992e-02 3.746800e-14 1 
    0.591255 4.516605e-02 3.876000e-14 1 
    0.591530 4.413152e-02 3.783700e-14 1 
    0.591805 4.537270e-02 3.886500e-14 1 
    0.592080 4.764794e-02 4.077600e-14 1 
    0.592355 4.524888e-02 3.868700e-14 1 
    0.592630 4.396450e-02 3.755400e-14 1 
    0.592905 3.988766e-02 3.404000e-14 1 
    0.593180 3.971237e-02 3.385900e-14 1 
    0.593455 4.412104e-02 3.758300e-14 1 
    0.593730 4.288936e-02 3.650000e-14 1 
    0.594005 3.977352e-02 3.381700e-14 1 
    0.594280 4.001166e-02 3.398800e-14 1 
    0.594555 4.043165e-02 3.431300e-14 1 
    0.594830 3.780242e-02 3.205200e-14 1 
    0.595105 3.854568e-02 3.265200e-14 1 
    0.595380 4.416551e-02 3.737800e-14 1 
    0.595655 4.131939e-02 3.493700e-14 1 
    0.595930 4.121195e-02 3.481400e-14 1 
    0.596205 4.150356e-02 3.502800e-14 1 
    0.596480 4.169840e-02 3.516000e-14 1 
    0.596755 4.352693e-02 3.666800e-14 1 
    0.597030 4.152820e-02 3.495200e-14 1 
    0.597305 4.132980e-02 3.475300e-14 1 
    0.597580 4.086197e-02 3.432800e-14 1 
    0.597855 4.054097e-02 3.402700e-14 1 
    0.598130 4.275583e-02 3.585300e-14 1 
    0.598405 4.334423e-02 3.631300e-14 1 
    0.598680 4.110215e-02 3.440300e-14 1 
    0.598955 4.190405e-02 3.504200e-14 1 
    0.599230 4.233393e-02 3.536900e-14 1 
    0.599505 4.195588e-02 3.502100e-14 1 
    0.599780 4.011656e-02 3.345500e-14 1 
    0.600055 4.277464e-02 3.563900e-14 1 
    0.600330 4.252554e-02 3.539900e-14 1 
    0.600605 4.370440e-02 3.634700e-14 1 
    0.600880 4.246148e-02 3.528100e-14 1 
    0.601155 4.294245e-02 3.564800e-14 1 
    0.601430 4.400300e-02 3.649500e-14 1 
    0.601705 4.118427e-02 3.412600e-14 1 
    0.601980 3.972288e-02 3.288500e-14 1 
    0.602255 3.978578e-02 3.290700e-14 1 
    0.602530 3.807104e-02 3.146000e-14 1 
    0.602805 4.102612e-02 3.387100e-14 1 
    0.603080 3.942810e-02 3.252200e-14 1 
    0.603355 3.801641e-02 3.132900e-14 1 
    0.603630 4.063566e-02 3.345700e-14 1 
    0.603905 4.062529e-02 3.341800e-14 1 
    0.604180 4.277705e-02 3.515600e-14 1 
    0.604455 4.228744e-02 3.472200e-14 1 
    0.604730 4.304026e-02 3.530800e-14 1 
    0.605005 4.412870e-02 3.616800e-14 1 
    0.605280 4.230526e-02 3.464200e-14 1 
    0.605555 4.253928e-02 3.480200e-14 1 
    0.605830 4.338783e-02 3.546400e-14 1 
    0.606105 4.257740e-02 3.477000e-14 1 
    0.606380 4.199341e-02 3.426200e-14 1 
    0.606655 4.219835e-02 3.439800e-14 1 
    0.606930 4.053355e-02 3.301100e-14 1 
    0.607205 4.248874e-02 3.457200e-14 1 
    0.607480 4.419895e-02 3.593100e-14 1 
    0.607755 4.106735e-02 3.335500e-14 1 
    0.608030 4.183037e-02 3.394400e-14 1 
    0.608305 4.326202e-02 3.507400e-14 1 
    0.608580 4.243448e-02 3.437200e-14 1 
    0.608855 4.307090e-02 3.485600e-14 1 
    0.609130 4.301583e-02 3.478000e-14 1 
    0.609405 4.366126e-02 3.527000e-14 1 
    0.609680 4.431275e-02 3.576400e-14 1 
    0.609955 4.574418e-02 3.688600e-14 1 
    0.610230 4.395333e-02 3.541000e-14 1 
    0.610505 4.360036e-02 3.509400e-14 1 
    0.610780 4.276546e-02 3.439100e-14 1 
    0.611055 4.020270e-02 3.230100e-14 1 
    0.611330 4.059020e-02 3.258300e-14 1 
    0.611605 4.129630e-02 3.312000e-14 1 
    0.611880 4.287471e-02 3.435500e-14 1 
    0.612155 4.425730e-02 3.543100e-14 1 
    0.612430 4.498720e-02 3.598300e-14 1 
    0.612705 4.532418e-02 3.622000e-14 1 
    0.612980 4.438670e-02 3.543900e-14 1 
    0.613255 4.649623e-02 3.709000e-14 1 
    0.613530 4.390928e-02 3.499500e-14 1 
    0.613805 4.371130e-02 3.480600e-14 1 
    0.614080 4.519600e-02 3.595600e-14 1 
    0.614355 4.551453e-02 3.617700e-14 1 
    0.614630 4.500752e-02 3.574200e-14 1 
    0.614905 4.458399e-02 3.537400e-14 1 
    0.615180 4.167831e-02 3.303900e-14 1 
    0.615455 4.260951e-02 3.374700e-14 1 
    0.615730 4.583729e-02 3.627100e-14 1 
    0.616005 4.437304e-02 3.508100e-14 1 
    0.616280 4.185281e-02 3.305900e-14 1 
    0.616555 4.130348e-02 3.259600e-14 1 
    0.616830 4.084191e-02 3.220300e-14 1 
    0.617105 4.402009e-02 3.467800e-14 1 
    0.617380 4.264905e-02 3.356800e-14 1 
    0.617655 4.056974e-02 3.190300e-14 1 
    0.617930 4.414677e-02 3.468500e-14 1 
    0.618205 4.455170e-02 3.497200e-14 1 
    0.618480 4.200424e-02 3.294300e-14 1 
    0.618755 4.234917e-02 3.318400e-14 1 
    0.619030 4.339846e-02 3.397600e-14 1 
    0.619305 4.641457e-02 3.630500e-14 1 
    0.619580 4.724659e-02 3.692300e-14 1 
    0.619855 4.043661e-02 3.157300e-14 1 
    0.620130 4.362719e-02 3.403400e-14 1 
    0.620405 4.563531e-02 3.556900e-14 1 
    0.620680 4.077033e-02 3.174900e-14 1 
    0.620955 4.050443e-02 3.151400e-14 1 
    0.621230 3.918057e-02 3.045700e-14 1 
    0.621505 3.975346e-02 3.087500e-14 1 
    0.621780 4.162118e-02 3.229700e-14 1 
    0.622055 4.304716e-02 3.337400e-14 1 
    0.622330 4.566849e-02 3.537500e-14 1 
    0.622605 4.319697e-02 3.343100e-14 1 
    0.622880 4.206085e-02 3.252300e-14 1 
    0.623155 4.600582e-02 3.554200e-14 1 
    0.623430 4.540513e-02 3.504700e-14 1 
    0.623705 4.512621e-02 3.480100e-14 1 
    0.623980 4.133740e-02 3.185100e-14 1 
    0.624255 4.315994e-02 3.322600e-14 1 
    0.624530 4.447339e-02 3.420700e-14 1 
    0.624805 4.564728e-02 3.507900e-14 1 
    0.625080 4.327800e-02 3.322900e-14 1 
    0.625355 4.296152e-02 3.295700e-14 1 
    0.625630 4.724614e-02 3.621200e-14 1 
    0.625905 4.941754e-02 3.784300e-14 1 
    0.626180 4.338994e-02 3.319800e-14 1 
    0.626455 4.127484e-02 3.155200e-14 1 
    0.626730 4.323969e-02 3.302500e-14 1 
    0.627005 4.359739e-02 3.326900e-14 1 
    0.627280 4.071601e-02 3.104300e-14 1 
    0.627555 4.172973e-02 3.178800e-14 1 
    0.627830 4.212500e-02 3.206100e-14 1 
    0.628105 4.105727e-02 3.122100e-14 1 
    0.628380 4.279640e-02 3.251500e-14 1 
    0.628655 4.043759e-02 3.069600e-14 1 
    0.628930 4.250216e-02 3.223500e-14 1 
    0.629205 4.165120e-02 3.156200e-14 1 
    0.629480 4.398584e-02 3.330200e-14 1 
    0.629755 4.234935e-02 3.203500e-14 1 
    0.630030 4.288913e-02 3.241500e-14 1 
    0.630305 4.470773e-02 3.376000e-14 1 
    0.630580 4.478254e-02 3.378700e-14 1 
    0.630855 4.430955e-02 3.340100e-14 1 
    0.631130 4.092259e-02 3.082100e-14 1 
    0.631405 4.457687e-02 3.354400e-14 1 
    0.631680 4.480724e-02 3.368800e-14 1 
    0.631955 4.489818e-02 3.372700e-14 1 
    0.632230 4.632294e-02 3.476700e-14 1 
    0.632505 4.538576e-02 3.403400e-14 1 
    0.632780 4.399043e-02 3.295900e-14 1 
    0.633055 4.312964e-02 3.228600e-14 1 
    0.633330 4.392120e-02 3.285000e-14 1 
    0.633605 4.075842e-02 3.045800e-14 1 
    0.633880 4.028887e-02 3.008100e-14 1 
    0.634155 4.195657e-02 3.129900e-14 1 
    0.634430 4.412220e-02 3.288600e-14 1 
    0.634705 4.436726e-02 3.304000e-14 1 
    0.634980 4.925083e-02 3.664500e-14 1 
    0.635255 4.819719e-02 3.583000e-14 1 
    0.635530 4.445171e-02 3.301700e-14 1 
    0.635805 4.139095e-02 3.071700e-14 1 
    0.636080 4.026826e-02 2.985800e-14 1 
    0.636355 4.972488e-02 3.683800e-14 1 
    0.636630 4.403560e-02 3.259500e-14 1 
    0.636905 4.614110e-02 3.412400e-14 1 
    0.637180 4.423893e-02 3.268900e-14 1 
    0.637455 4.470379e-02 3.300400e-14 1 
    0.637730 4.668368e-02 3.443600e-14 1 
    0.638005 4.495328e-02 3.313100e-14 1 
    0.638280 4.514822e-02 3.324600e-14 1 
    0.638555 4.552828e-02 3.349700e-14 1 
    0.638830 4.699587e-02 3.454700e-14 1 
    0.639105 4.517787e-02 3.318200e-14 1 
    0.639380 4.657127e-02 3.417600e-14 1 
    0.639655 4.983550e-02 3.654000e-14 1 
    0.639930 4.677974e-02 3.427000e-14 1 
    0.640205 4.632675e-02 3.390900e-14 1 
    0.640480 4.740166e-02 3.466600e-14 1 
    0.640755 4.808149e-02 3.513300e-14 1 
    0.641030 4.711602e-02 3.439800e-14 1 
    0.641305 4.694260e-02 3.424200e-14 1 
    0.641580 4.669335e-02 3.403100e-14 1 
    0.641855 4.676635e-02 3.405500e-14 1 
    0.642130 4.337034e-02 3.155500e-14 1 
    0.642405 4.235652e-02 3.079100e-14 1 
    0.642680 5.141767e-02 3.734600e-14 1 
    0.642955 4.291275e-02 3.114200e-14 1 
    0.643230 4.621806e-02 3.351200e-14 1 
    0.643505 4.996790e-02 3.620000e-14 1 
    0.643780 4.537013e-02 3.284100e-14 1 
    0.644055 4.978096e-02 3.600300e-14 1 
    0.644330 4.195895e-02 3.032000e-14 1 
    0.644605 4.429950e-02 3.198400e-14 1 
    0.644880 4.932498e-02 3.558200e-14 1 
    0.645155 4.992757e-02 3.598600e-14 1 
    0.645430 4.618482e-02 3.326000e-14 1 
    0.645705 4.965695e-02 3.573000e-14 1 
    0.645980 4.732070e-02 3.402000e-14 1 
    0.646255 4.951187e-02 3.556500e-14 1 
    0.646530 4.894792e-02 3.513000e-14 1 
    0.646805 3.928648e-02 2.817200e-14 1 
    0.647080 4.324183e-02 3.098200e-14 1 
    0.647355 4.518675e-02 3.234800e-14 1 
    0.647630 3.637809e-02 2.602000e-14 1 
    0.647905 4.292119e-02 3.067400e-14 1 
    0.648180 4.388334e-02 3.133500e-14 1 
    0.648455 4.727753e-02 3.373000e-14 1 
    0.648730 4.495245e-02 3.204400e-14 1 
    0.649005 5.071900e-02 3.612400e-14 1 
    0.649280 4.424038e-02 3.148300e-14 1 
    0.649555 4.687972e-02 3.333300e-14 1 
    0.649830 4.827071e-02 3.429300e-14 1 
    0.650105 5.132779e-02 3.643400e-14 1 
    0.650380 4.962426e-02 3.519500e-14 1 
    0.650655 5.134553e-02 3.638500e-14 1 
    0.650930 4.732274e-02 3.350600e-14 1 
    0.651205 4.719028e-02 3.338400e-14 1 
    0.651480 4.482931e-02 3.168700e-14 1 
    0.651755 4.042816e-02 2.855200e-14 1 
    0.652030 4.276656e-02 3.017800e-14 1 
    0.652305 4.743210e-02 3.344200e-14 1 
    0.652580 4.954037e-02 3.489900e-14 1 
    0.652855 4.774512e-02 3.360600e-14 1 
    0.653130 4.920728e-02 3.460600e-14 1 
    0.653405 4.932700e-02 3.466100e-14 1 
    0.653680 4.794278e-02 3.366000e-14 1 
    0.653955 4.309786e-02 3.023300e-14 1 
    0.654230 4.095551e-02 2.870600e-14 1 
    0.654505 4.762979e-02 3.335600e-14 1 
    0.654780 4.799137e-02 3.358100e-14 1 
    0.655055 4.745241e-02 3.317600e-14 1 
    0.655330 5.302797e-02 3.704300e-14 1 
    0.655605 4.797484e-02 3.348500e-14 1 
    0.655880 4.516301e-02 3.149600e-14 1 
    0.656155 4.817018e-02 3.356500e-14 1 
    0.656430 4.774088e-02 3.323800e-14 1 
    0.656705 4.661217e-02 3.242500e-14 1 
    0.656980 4.753892e-02 3.304200e-14 1 
    0.657255 4.715250e-02 3.274600e-14 1 
    0.657530 4.706227e-02 3.265600e-14 1 
    0.657805 4.883536e-02 3.385800e-14 1 
    0.658080 4.479235e-02 3.102900e-14 1 
    0.658355 4.708508e-02 3.259000e-14 1 
    0.658630 4.624383e-02 3.198100e-14 1 
    0.658905 5.110737e-02 3.531500e-14 1 
    0.659180 5.724053e-02 3.952000e-14 1 
    0.659455 6.939684e-02 4.787300e-14 1 
    0.659730 7.606318e-02 5.242800e-14 1 
    0.660005 7.515810e-02 5.176100e-14 1 
    0.660280 7.291593e-02 5.017500e-14 1 
    0.660555 9.461733e-02 6.505400e-14 1 
    0.660830 1.488407e-01 1.022500e-13 1 
    0.661105 2.019653e-01 1.386300e-13 1 
    0.661380 2.056619e-01 1.410500e-13 1 
    0.661655 1.456256e-01 9.979200e-14 1 
    0.661930 8.519998e-02 5.833600e-14 1 
    0.662205 6.000207e-02 4.104900e-14 1 
    0.662480 5.907906e-02 4.038400e-14 1 
    0.662755 7.848708e-02 5.360600e-14 1 
    0.663030 1.110554e-01 7.578700e-14 1 
    0.663305 1.333076e-01 9.089700e-14 1 
    0.663580 1.180533e-01 8.042900e-14 1 
    0.663855 8.451517e-02 5.753200e-14 1 
    0.664130 5.943253e-02 4.042400e-14 1 
    0.664405 5.347237e-02 3.634000e-14 1 
    0.664680 5.000876e-02 3.395800e-14 1 
    0.664955 4.425925e-02 3.002900e-14 1 
    0.665230 4.768713e-02 3.232800e-14 1 
    0.665505 4.710061e-02 3.190400e-14 1 
    0.665780 4.802311e-02 3.250200e-14 1 
    0.666055 5.035192e-02 3.405000e-14 1 
    0.666330 4.933680e-02 3.333600e-14 1 
    0.666605 5.082911e-02 3.431600e-14 1 
    0.666880 5.324443e-02 3.591700e-14 1 
    0.667155 4.613566e-02 3.109600e-14 1 
    0.667430 5.081245e-02 3.422000e-14 1 
    0.667705 5.193473e-02 3.494700e-14 1 
    0.667980 5.001574e-02 3.362800e-14 1 
    0.668255 5.012689e-02 3.367500e-14 1 
    0.668530 4.842363e-02 3.250400e-14 1 
    0.668805 4.869458e-02 3.265900e-14 1 
    0.669080 5.070587e-02 3.398000e-14 1 
    0.669355 4.802797e-02 3.215900e-14 1 
    0.669630 4.832453e-02 3.233100e-14 1 
    0.669905 5.013987e-02 3.351800e-14 1 
    0.670180 5.245969e-02 3.504000e-14 1 
    0.670455 4.692284e-02 3.131600e-14 1 
    0.670730 5.237188e-02 3.492400e-14 1 
    0.671005 4.926010e-02 3.282200e-14 1 
    0.671280 4.857950e-02 3.234200e-14 1 
    0.671555 4.945664e-02 3.289900e-14 1 
    0.671830 4.868020e-02 3.235600e-14 1 
    0.672105 5.095610e-02 3.384100e-14 1 
    0.672380 5.122385e-02 3.399100e-14 1 
    0.672655 5.110439e-02 3.388400e-14 1 
    0.672930 5.472810e-02 3.625700e-14 1 
    0.673205 5.153847e-02 3.411600e-14 1 
    0.673480 5.108619e-02 3.378900e-14 1 
    0.673755 4.849957e-02 3.205200e-14 1 
    0.674030 4.924335e-02 3.251700e-14 1 
    0.674305 5.203138e-02 3.433000e-14 1 
    0.674580 5.381669e-02 3.547900e-14 1 
    0.674855 5.379530e-02 3.543600e-14 1 
    0.675130 5.059233e-02 3.329900e-14 1 
    0.675405 4.639572e-02 3.051200e-14 1 
    0.675680 4.571978e-02 3.004300e-14 1 
    0.675955 5.430437e-02 3.565500e-14 1 
    0.676230 6.435095e-02 4.221700e-14 1 
    0.676505 7.213316e-02 4.728400e-14 1 
    0.676780 7.348957e-02 4.813400e-14 1 
    0.677055 6.534694e-02 4.276600e-14 1 
    0.677330 6.198980e-02 4.053600e-14 1 
    0.677605 6.252225e-02 4.085100e-14 1 
    0.677880 6.590301e-02 4.302500e-14 1 
    0.678155 7.224785e-02 4.712900e-14 1 
    0.678430 6.944359e-02 4.526300e-14 1 
    0.678705 5.830019e-02 3.796900e-14 1 
    0.678980 4.932848e-02 3.210000e-14 1 
    0.679255 5.106327e-02 3.320200e-14 1 
    0.679530 4.760294e-02 3.092700e-14 1 
    0.679805 4.447585e-02 2.887200e-14 1 
    0.680080 5.072488e-02 3.290200e-14 1 
    0.680355 4.491044e-02 2.910700e-14 1 
    0.680630 4.411753e-02 2.857000e-14 1 
    0.680905 4.661970e-02 3.016600e-14 1 
    0.681180 4.911969e-02 3.175800e-14 1 
    0.681455 4.844422e-02 3.129600e-14 1 
    0.681730 5.022616e-02 3.242100e-14 1 
    0.682005 4.763870e-02 3.072600e-14 1 
    0.682280 5.237408e-02 3.375300e-14 1 
    0.682555 4.924832e-02 3.171300e-14 1 
    0.682830 5.519859e-02 3.551600e-14 1 
    0.683912 5.199973e-02 3.335200e-14 0 
    0.685488 5.199218e-02 3.319400e-14 0 
    0.687068 5.234228e-02 3.326400e-14 0 
    0.688652 5.245428e-02 3.318200e-14 0 
    0.690240 5.244555e-02 3.302400e-14 0 
    0.691831 5.147986e-02 3.226700e-14 0 
    0.693426 5.242754e-02 3.271000e-14 0 
    0.695024 5.290456e-02 3.285600e-14 0 
    0.696626 5.326195e-02 3.292600e-14 0 
    0.698233 5.325283e-02 3.276900e-14 0 
    0.699842 5.410750e-02 3.314200e-14 0 
    0.701455 5.409806e-02 3.298400e-14 0 
    0.703072 5.458998e-02 3.313100e-14 0 
    0.704693 5.432884e-02 3.282100e-14 0 
    0.706318 5.419555e-02 3.259000e-14 0 
    0.707946 5.468624e-02 3.273400e-14 0 
    0.709578 5.569391e-02 3.318400e-14 0 
    0.711214 5.645854e-02 3.348500e-14 0 
    0.712853 5.554690e-02 3.279300e-14 0 
    0.714496 5.566371e-02 3.271100e-14 0 
    0.716143 5.539922e-02 3.240600e-14 0 
    0.717794 5.577345e-02 3.247500e-14 0 
    0.719449 5.537876e-02 3.209700e-14 0 
    0.721108 5.549752e-02 3.201800e-14 0 
    0.722770 5.447377e-02 3.128300e-14 0 
    0.724436 5.213263e-02 2.980100e-14 0 
    0.726106 5.333810e-02 3.035000e-14 0 
    0.727780 5.661752e-02 3.206800e-14 0 
    0.729457 5.570279e-02 3.140500e-14 0 
    0.731139 5.556439e-02 3.118300e-14 0 
    0.732825 5.777216e-02 3.227300e-14 0 
    0.734514 5.762875e-02 3.204500e-14 0 
    0.736207 5.748640e-02 3.181900e-14 0 
    0.737904 5.881351e-02 3.240400e-14 0 
    0.739605 6.017353e-02 3.300100e-14 0 
    0.741310 5.933572e-02 3.239200e-14 0 
    0.743019 6.028868e-02 3.276100e-14 0 
    0.744732 5.904175e-02 3.193600e-14 0 
    0.746449 6.026711e-02 3.244900e-14 0 
    0.748170 5.956576e-02 3.192400e-14 0 
    0.749894 6.108335e-02 3.258700e-14 0 
    0.751623 6.163652e-02 3.273100e-14 0 
    0.753356 6.162407e-02 3.257400e-14 0 
    0.755092 6.175445e-02 3.249300e-14 0 
    0.756833 6.188681e-02 3.241300e-14 0 
    0.758578 6.201715e-02 3.233200e-14 0 
    0.760326 6.301241e-02 3.270000e-14 0 
    0.762079 6.242249e-02 3.224500e-14 0 
    0.763836 6.313463e-02 3.246300e-14 0 
    0.765597 6.182787e-02 3.164500e-14 0 
    0.767361 6.181476e-02 3.149300e-14 0 
    0.769130 6.223221e-02 3.156000e-14 0 
    0.770904 6.236312e-02 3.148100e-14 0 
    0.772681 5.845778e-02 2.937400e-14 0 
    0.774462 6.106076e-02 3.054100e-14 0 
    0.776247 5.952283e-02 2.963500e-14 0 
    0.778037 6.075611e-02 3.011000e-14 0 
    0.779830 6.230341e-02 3.073500e-14 0 
    0.781628 6.129584e-02 3.009900e-14 0 
    0.783430 6.086069e-02 2.974800e-14 0 
    0.785236 6.141292e-02 2.988000e-14 0 
    0.787046 6.268540e-02 3.035900e-14 0 
    0.788860 6.339994e-02 3.056400e-14 0 
    0.790679 6.368015e-02 3.055800e-14 0 
    0.792501 6.425659e-02 3.069300e-14 0 
    0.794328 6.394748e-02 3.040500e-14 0 
    0.796159 6.378836e-02 3.019000e-14 0 
    0.797995 6.319139e-02 2.977000e-14 0 
    0.799834 6.288803e-02 2.949100e-14 0 
    0.801678 6.345683e-02 2.962100e-14 0 
    0.803526 6.447501e-02 2.995800e-14 0 
    0.805378 6.461040e-02 2.988300e-14 0 
    0.807235 6.504554e-02 2.994600e-14 0 
    0.809096 6.503157e-02 2.980200e-14 0 
    0.810961 6.607487e-02 3.014100e-14 0 
    0.812831 6.682702e-02 3.034400e-14 0 
    0.814704 6.650701e-02 3.006000e-14 0 
    0.816582 6.603603e-02 2.971000e-14 0 
    0.818465 6.709344e-02 3.004700e-14 0 
    0.820352 6.738970e-02 3.004100e-14 0 
    0.822243 6.614576e-02 2.935100e-14 0 
    0.824138 6.705323e-02 2.961700e-14 0 
    0.826038 6.491316e-02 2.854000e-14 0 
    0.827942 6.748857e-02 2.953600e-14 0 
    0.829851 6.429031e-02 2.800700e-14 0 
    0.831764 6.967203e-02 3.021200e-14 0 
    0.833681 7.013950e-02 3.027500e-14 0 
    0.835603 6.681386e-02 2.870700e-14 0 
    0.837529 6.757348e-02 2.890000e-14 0 
    0.839460 6.756127e-02 2.876200e-14 0 
    0.841395 6.864240e-02 2.908800e-14 0 
    0.843335 6.862977e-02 2.894900e-14 0 
    0.845279 6.736274e-02 2.828400e-14 0 
    0.847227 6.923358e-02 2.893600e-14 0 
    0.849180 6.986082e-02 2.906400e-14 0 
    0.851138 6.888661e-02 2.852700e-14 0 
    0.853100 6.935012e-02 2.858700e-14 0 
    0.855067 6.997737e-02 2.871300e-14 0 
    0.857038 6.192444e-02 2.529200e-14 0 
    0.859014 6.962380e-02 2.830600e-14 0 
    0.860994 5.684124e-02 2.300300e-14 0 
    0.862979 7.072479e-02 2.849000e-14 0 
    0.864968 7.120081e-02 2.855000e-14 0 
    0.866962 6.813714e-02 2.719600e-14 0 
    0.868960 7.035438e-02 2.795200e-14 0 
    0.870964 7.099028e-02 2.807500e-14 0 
    0.872971 6.593248e-02 2.595500e-14 0 
    0.874984 6.839078e-02 2.679900e-14 0 
    0.877001 6.932688e-02 2.704100e-14 0 
    0.879023 7.059991e-02 2.741100e-14 0 
    0.881049 7.010031e-02 2.709200e-14 0 
    0.883080 7.056944e-02 2.714800e-14 0 
    0.885116 7.203120e-02 2.758300e-14 0 
    0.887156 7.251314e-02 2.764000e-14 0 
    0.889201 7.233126e-02 2.744400e-14 0 
    0.891251 7.132274e-02 2.693700e-14 0 
    0.893305 6.825507e-02 2.566000e-14 0 
    0.895365 7.063590e-02 2.643300e-14 0 
    0.897429 7.160354e-02 2.667200e-14 0 
    0.899498 7.224964e-02 2.678900e-14 0 
    0.901571 7.173498e-02 2.647600e-14 0 
    0.903650 6.849229e-02 2.516300e-14 0 
    0.905733 7.023309e-02 2.568400e-14 0 
    0.907820 6.798857e-02 2.474900e-14 0 
    0.909913 6.907793e-02 2.503000e-14 0 
    0.912011 7.695482e-02 2.775600e-14 0 
    0.914113 7.364444e-02 2.644000e-14 0 
    0.916220 7.047539e-02 2.518600e-14 0 
    0.918333 7.293446e-02 2.594500e-14 0 
    0.920450 6.915642e-02 2.448800e-14 0 
    0.922571 6.898183e-02 2.431400e-14 0 
    0.924698 6.739634e-02 2.364600e-14 0 
    0.926830 7.153580e-02 2.498300e-14 0 
    0.928966 7.021476e-02 2.440900e-14 0 
    0.931108 7.150415e-02 2.474300e-14 0 
    0.933254 7.348896e-02 2.531300e-14 0 
    0.935406 7.065207e-02 2.422400e-14 0 
    0.937562 6.902671e-02 2.355800e-14 0 
    0.939723 7.497344e-02 2.547000e-14 0 
    0.941890 7.495588e-02 2.534700e-14 0 
    0.944061 7.459476e-02 2.510900e-14 0 
    0.946237 7.526434e-02 2.521800e-14 0 
    0.948418 7.455628e-02 2.486600e-14 0 
    0.950605 7.540356e-02 2.503300e-14 0 
    0.952796 7.520988e-02 2.485400e-14 0 
    0.954993 7.536560e-02 2.479100e-14 0 
    0.957194 7.517588e-02 2.461500e-14 0 
    0.959401 7.463931e-02 2.432700e-14 0 
    0.961612 7.192298e-02 2.333400e-14 0 
    0.963829 7.477560e-02 2.414800e-14 0 
    0.966051 7.562161e-02 2.430900e-14 0 
    0.968278 7.560191e-02 2.419100e-14 0 
    0.970510 7.575932e-02 2.413000e-14 0 
    0.972747 7.556646e-02 2.395800e-14 0 
    0.974990 7.572207e-02 2.389700e-14 0 
    0.977237 7.570224e-02 2.378100e-14 0 
    0.979490 7.568393e-02 2.366600e-14 0 
    0.981748 7.566381e-02 2.355100e-14 0 
    0.984011 7.599366e-02 2.354500e-14 0 
    0.986279 7.579963e-02 2.337700e-14 0 
    0.988553 7.630593e-02 2.342500e-14 0 
    0.990832 7.646181e-02 2.336500e-14 0 
    0.993116 7.662076e-02 2.330600e-14 0 
    0.995405 7.624775e-02 2.308600e-14 0 
    0.997700 7.622813e-02 2.297400e-14 0 
    1.000000 7.638667e-02 2.291600e-14 0 
    1.002305 7.654163e-02 2.285700e-14 0 
    1.004615 7.669974e-02 2.279900e-14 0 
    1.006931 7.667863e-02 2.268800e-14 0 
    1.009253 7.560667e-02 2.226800e-14 0 
    1.013912 7.487395e-02 2.185000e-14 0 
    1.018591 7.622716e-02 2.204100e-14 0 
    1.025652 7.651971e-02 2.182200e-14 0 
    1.030386 7.665440e-02 2.166000e-14 0 
    1.035142 7.696720e-02 2.154900e-14 0 
    1.037528 7.676985e-02 2.139500e-14 0 
    1.056818 7.678069e-02 2.062400e-14 0 
    1.076465 7.631706e-02 1.975800e-14 0 
    1.099006 7.596748e-02 1.886900e-14 0 
    1.116863 7.684711e-02 1.848200e-14 0 
    1.137628 7.684513e-02 1.781300e-14 0 
    1.158778 7.773723e-02 1.736800e-14 0 
    1.177606 7.773691e-02 1.681700e-14 0 
    1.199499 7.791571e-02 1.624600e-14 0 
    1.218990 7.809588e-02 1.576700e-14 0 
    1.238796 7.863370e-02 1.537200e-14 0 
    1.258925 7.899631e-02 1.495300e-14 0 
    1.279381 7.936373e-02 1.454600e-14 0 
    1.300169 7.954645e-02 1.411700e-14 0 
    1.318256 7.991558e-02 1.379600e-14 0 
    1.339676 8.028433e-02 1.342000e-14 0 
    1.358313 8.102687e-02 1.317500e-14 0 
    1.380384 8.177599e-02 1.287500e-14 0 
    1.399587 8.215391e-02 1.258200e-14 0 
    1.419057 8.252908e-02 1.229500e-14 0 
    1.438799 8.310243e-02 1.204300e-14 0 
    1.458814 8.445162e-02 1.190500e-14 0 
    1.479109 8.484147e-02 1.163400e-14 0 
    1.499685 8.622127e-02 1.150100e-14 0 
    1.520548 8.741923e-02 1.134300e-14 0 
    1.541701 8.945641e-02 1.129100e-14 0 
    1.559552 9.070493e-02 1.118800e-14 0 
    1.581248 9.112092e-02 1.093300e-14 0 
    1.599558 9.091508e-02 1.066000e-14 0 
    1.621810 9.281337e-02 1.058600e-14 0 
    1.640590 9.410506e-02 1.048900e-14 0 
    1.663413 9.345812e-02 1.013300e-14 0 
    1.682673 9.345847e-02 9.902400e-15 0 
    1.702158 9.238851e-02 9.566200e-15 0 
    1.721869 9.217566e-02 9.326900e-15 0 
    1.741808 9.028569e-02 8.927700e-15 0 
    1.761975 9.028567e-02 8.724500e-15 0 
    1.782379 8.945761e-02 8.447700e-15 0 
    1.803018 8.884204e-02 8.198600e-15 0 
    1.823896 8.722005e-02 7.865700e-15 0 
    1.845014 8.722039e-02 7.686700e-15 0 
    1.862087 8.622187e-02 7.460000e-15 0 
    1.883649 8.445387e-02 7.140700e-15 0 
    1.905462 8.445327e-02 6.978100e-15 0 
    1.923091 8.406558e-02 6.819300e-15 0 
    1.945360 8.291171e-02 6.572600e-15 0 
    1.963361 8.102503e-02 6.305800e-15 0 
    1.986094 8.102408e-02 6.162200e-15 0 
    2.004472 8.028182e-02 5.994300e-15 0 
    2.023020 7.991366e-02 5.857900e-15 0 
    2.046444 7.899837e-02 5.659000e-15 0 
    2.065380 7.881625e-02 5.542900e-15 0 
    2.084490 7.791486e-02 5.379500e-15 0 
    2.103778 7.702214e-02 5.220800e-15 0 
    2.123245 7.666893e-02 5.102000e-15 0 
    2.142890 7.596508e-02 4.962900e-15 0 
    2.167704 7.579077e-02 4.838800e-15 0 
    2.187762 7.423715e-02 4.653100e-15 0 
    2.208004 7.423591e-02 4.568100e-15 0 
    2.223311 7.321737e-02 4.443600e-15 0 
    2.243881 7.254599e-02 4.322500e-15 0 
    2.264644 7.204675e-02 4.214400e-15 0 
    2.285600 7.138725e-02 4.099600e-15 0 
    2.306747 6.708466e-02 3.782200e-15 0 
    2.328092 6.770498e-02 3.747500e-15 0 
    2.344228 6.217501e-02 3.394200e-15 0 
    2.365920 6.075983e-02 3.256400e-15 0 
    2.387810 6.231889e-02 3.279000e-15 0 
    2.404363 5.869796e-02 3.046100e-15 0 
    2.426611 5.856251e-02 2.983600e-15 0 
    2.449063 5.923936e-02 2.963000e-15 0 
    2.466040 5.683430e-02 2.803700e-15 0 
    2.488857 5.775874e-02 2.797300e-15 0 
    2.506110 5.341011e-02 2.551200e-15 0 
    2.529297 5.378034e-02 2.522000e-15 0 
    2.546831 5.427776e-02 2.510400e-15 0 
    2.570395 5.427813e-02 2.464600e-15 0 
    2.588213 5.490598e-02 2.458900e-15 0 
    2.606153 5.427740e-02 2.397400e-15 0 
    2.630268 5.465234e-02 2.369900e-15 0 
    2.648499 5.390446e-02 2.305400e-15 0 
    2.666859 5.415181e-02 2.284200e-15 0 
    2.691534 5.377968e-02 2.227100e-15 0 
    2.710192 5.377867e-02 2.196500e-15 0 
    2.728977 5.353130e-02 2.156400e-15 0 
    2.747895 5.316355e-02 2.112200e-15 0 
    2.766941 5.292057e-02 2.073700e-15 0 
    2.792545 5.279714e-02 2.031100e-15 0 
    2.811900 5.267762e-02 1.998700e-15 0 
    2.831393 5.231487e-02 1.957700e-15 0 
    2.851018 5.195341e-02 1.917500e-15 0 
    2.870782 5.159659e-02 1.878200e-15 0 
    2.890680 5.088823e-02 1.827000e-15 0 
    2.910719 5.088736e-02 1.801900e-15 0 
    2.930893 5.053862e-02 1.765000e-15 0 
    2.951208 5.007456e-02 1.724800e-15 0 
    2.971666 4.972917e-02 1.689400e-15 0 
    2.992263 4.938827e-02 1.654800e-15 0 
    3.013007 4.904655e-02 1.620800e-15 0 
    3.033890 4.871016e-02 1.587600e-15 0 
    3.054922 4.815284e-02 1.547900e-15 0 
    3.069022 4.781974e-02 1.523100e-15 0 
    3.090294 4.749174e-02 1.491900e-15 0 
    3.111717 4.716484e-02 1.461300e-15 0 
    3.133284 4.694714e-02 1.434600e-15 0 
    3.155005 4.673098e-02 1.408400e-15 0 
    3.169567 4.619892e-02 1.379600e-15 0 
    3.191539 4.598604e-02 1.354400e-15 0 
    3.213660 4.577541e-02 1.329700e-15 0 
    3.235938 4.566881e-02 1.308400e-15 0 
    3.250874 4.556296e-02 1.293400e-15 0 
    3.273406 4.619674e-02 1.293400e-15 0 
    3.296098 4.826267e-02 1.332700e-15 0 
    3.311311 5.415139e-02 1.481600e-15 0 
    3.334262 5.402639e-02 1.457900e-15 0 
    3.357376 4.727466e-02 1.258200e-15 0 
    3.372872 4.442431e-02 1.171500e-15 0 
    3.396254 4.321223e-02 1.123900e-15 0 
    3.411929 4.232762e-02 1.090800e-15 0 
    3.435578 4.184233e-02 1.063500e-15 0 
    3.451438 4.126861e-02 1.039300e-15 0 
    3.475361 4.098513e-02 1.018000e-15 0 
    3.491405 4.051520e-02 9.971000e-16 0 
    3.515604 4.023626e-02 9.766500e-16 0 
    3.531830 3.977570e-02 9.566200e-16 0 
    3.556314 3.950195e-02 9.370000e-16 0 
    3.572728 3.913986e-02 9.199000e-16 0 
    3.597495 3.887035e-02 9.010300e-16 0 
    3.614099 3.851376e-02 8.845800e-16 0 
    3.639149 3.833701e-02 8.684400e-16 0 
    3.655950 3.798564e-02 8.525900e-16 0 
    3.672823 3.755063e-02 8.351000e-16 0 
    3.698280 3.737817e-02 8.198600e-16 0 
    3.715354 3.695016e-02 8.030400e-16 0 
    3.732502 3.661170e-02 7.883900e-16 0 
    3.758372 3.644343e-02 7.740000e-16 0 
    3.775723 3.594339e-02 7.563800e-16 0 
    3.793150 3.586062e-02 7.477200e-16 0 
    3.819441 3.569569e-02 7.340700e-16 0 
    3.837073 3.536839e-02 7.206700e-16 0 
    3.854783 3.512503e-02 7.091500e-16 0 
    3.881506 3.504422e-02 6.978100e-16 0 
    3.899421 3.472324e-02 6.850800e-16 0 
    3.917418 3.448385e-02 6.741200e-16 0 
    3.935499 3.416789e-02 6.618200e-16 0 
    3.953667 3.393283e-02 6.512400e-16 0 
    3.981071 3.377670e-02 6.393500e-16 0 
    3.999450 3.362168e-02 6.305800e-16 0 
    4.017909 3.323643e-02 6.176400e-16 0 
    4.036454 3.308394e-02 6.091700e-16 0 
    4.055084 3.285617e-02 5.994300e-16 0 
    4.083195 3.270530e-02 5.884900e-16 0 
    4.102040 3.262984e-02 5.817500e-16 0 
    4.120973 3.248001e-02 5.737700e-16 0 
    4.139998 3.225670e-02 5.646000e-16 0 
    4.159106 3.210827e-02 5.568500e-16 0 
    4.178302 3.188742e-02 5.479500e-16 0 
    4.197591 3.166801e-02 5.391900e-16 0 
    4.216965 3.159469e-02 5.330100e-16 0 
    4.236428 3.137730e-02 5.244900e-16 0 
    4.255986 3.130542e-02 5.184900e-16 0 
    4.275629 3.116119e-02 5.113700e-16 0 
    4.305264 3.116154e-02 5.043600e-16 0 
    4.325140 3.031193e-02 4.861100e-16 0 
    4.345102 2.962195e-02 4.706900e-16 0 
    4.365157 2.989603e-02 4.706900e-16 0 
    4.385309 2.908166e-02 4.536700e-16 0 
    4.405549 2.881504e-02 4.453900e-16 0 
    4.425883 2.874865e-02 4.402900e-16 0 
    4.446310 2.802944e-02 4.253400e-16 0 
    4.456564 2.796490e-02 4.224100e-16 0 
    4.477133 2.783677e-02 4.166200e-16 0 
    4.497797 2.726556e-02 4.043300e-16 0 
    4.518562 2.764516e-02 4.062000e-16 0 
    4.539417 2.739128e-02 3.987800e-16 0 
    4.560368 2.707833e-02 3.906100e-16 0 
    4.581416 2.726590e-02 3.897100e-16 0 
    4.602567 2.732829e-02 3.870200e-16 0 
    4.623810 2.689200e-02 3.773500e-16 0 
    4.645151 2.726596e-02 3.790900e-16 0 
    4.666595 2.714081e-02 3.738900e-16 0 
    4.688134 2.714064e-02 3.704600e-16 0 
    4.698940 2.714078e-02 3.687600e-16 0 
    4.720628 2.720322e-02 3.662200e-16 0 
    4.742421 2.714086e-02 3.620300e-16 0 
    4.764310 2.745477e-02 3.628600e-16 0 
    4.786299 2.739188e-02 3.587100e-16 0 
    4.808395 2.745502e-02 3.562400e-16 0 
    4.819479 2.739127e-02 3.537800e-16 0 
    4.841723 2.726572e-02 3.489300e-16 0 
    4.864070 2.764496e-02 3.505400e-16 0 
    4.886525 2.764530e-02 3.473300e-16 0 
    4.909079 2.764483e-02 3.441400e-16 0 
    4.920395 2.758117e-02 3.417700e-16 0 
    4.943104 2.764494e-02 3.394200e-16 0 
    4.965924 2.777254e-02 3.378600e-16 0 
    4.988845 2.783704e-02 3.355400e-16 0 
    5.000344 2.790301e-02 3.347900e-16 0 
    5.023429 2.810236e-02 3.340900e-16 0 
    5.046614 2.843452e-02 3.349400e-16 0 
    5.069906 2.870360e-02 3.350100e-16 0 
    5.081593 2.864069e-02 3.327400e-16 0 
    5.105052 2.897871e-02 3.335800e-16 0 
    5.116820 2.918316e-02 3.343900e-16 0 
    5.128614 2.932135e-02 3.344300e-16 0 
    5.140436 2.939151e-02 3.336900e-16 0 
    5.152285 2.953070e-02 3.337300e-16 0 
    5.164162 2.966967e-02 3.337600e-16 0 
    5.176071 2.981024e-02 3.338000e-16 0 
    5.188002 2.995142e-02 3.338400e-16 0 
    5.199961 3.023117e-02 3.354100e-16 0 
    5.211947 3.044404e-02 3.362200e-16 0 
    5.223961 3.058819e-02 3.362600e-16 0 
    5.236003 3.066175e-02 3.355200e-16 0 
    5.248072 3.087763e-02 3.363300e-16 0 
    5.260175 3.102390e-02 3.363700e-16 0 
    5.272300 3.116987e-02 3.364000e-16 0 
    5.284453 3.138913e-02 3.372100e-16 0 
    5.296634 3.168363e-02 3.388100e-16 0 
    5.308843 3.190596e-02 3.396200e-16 0 
    5.321080 3.205699e-02 3.396600e-16 0 
    5.333352 3.213391e-02 3.389100e-16 0 
    5.345646 3.236034e-02 3.397300e-16 0 
    5.357968 3.258816e-02 3.405500e-16 0 
    5.370318 3.281739e-02 3.413700e-16 0 
    5.382697 3.304806e-02 3.421900e-16 0 
    5.395105 3.328113e-02 3.430200e-16 0 
    5.407541 3.351466e-02 3.438400e-16 0 
    5.420011 3.375068e-02 3.446700e-16 0 
    5.432505 3.406681e-02 3.463000e-16 0 
    5.445027 3.430607e-02 3.471300e-16 0 
    5.457579 3.454782e-02 3.479700e-16 0 
    5.470159 3.471026e-02 3.480000e-16 0 
    5.482768 3.503480e-02 3.496400e-16 0 
    5.495406 3.536259e-02 3.512900e-16 0 
    5.508079 3.561184e-02 3.521400e-16 0 
    5.520776 3.586257e-02 3.529900e-16 0 
    5.533502 3.619752e-02 3.546500e-16 0 
    5.546257 3.645277e-02 3.555100e-16 0 
    5.559041 3.679304e-02 3.571800e-16 0 
    5.571855 3.722260e-02 3.596900e-16 0 
    5.584705 3.748494e-02 3.605600e-16 0 
    5.597578 3.774881e-02 3.614300e-16 0 
    5.610481 3.818955e-02 3.639700e-16 0 
    5.623413 3.863565e-02 3.665300e-16 0 
    5.636376 3.890717e-02 3.674100e-16 0 
    5.649368 3.936121e-02 3.699900e-16 0 
    5.662390 3.972991e-02 3.717400e-16 0 
    5.675448 4.010126e-02 3.734900e-16 0 
    5.688531 4.057004e-02 3.761200e-16 0 
    5.701643 4.104336e-02 3.787600e-16 0 
    5.714786 4.152237e-02 3.814200e-16 0 
    5.727959 4.191087e-02 3.832200e-16 0 
    5.741162 4.239986e-02 3.859100e-16 0 
    5.754402 4.309344e-02 3.904200e-16 0 
    5.767667 4.359729e-02 3.931700e-16 0 
    5.780962 4.420735e-02 3.968400e-16 0 
    5.794287 4.472361e-02 3.996300e-16 0 
    5.807643 4.535051e-02 4.033700e-16 0 
    5.821030 4.609181e-02 4.080800e-16 0 
    5.834448 4.684466e-02 4.128400e-16 0 
    5.847904 4.761043e-02 4.176600e-16 0 
    5.861383 4.838901e-02 4.225400e-16 0 
    5.874894 4.917954e-02 4.274700e-16 0 
    5.888436 4.998326e-02 4.324600e-16 0 
    5.902009 5.103487e-02 4.395300e-16 0 
    5.915614 5.198898e-02 4.456900e-16 0 
    5.929250 5.320510e-02 4.540200e-16 0 
    5.943050 4.893682e-02 4.156600e-16 3 
    5.973300 4.901999e-02 4.121600e-16 3 
    6.003540 5.453349e-02 4.539100e-16 3 
    6.033780 6.408879e-02 5.281100e-16 3 
    6.064020 6.989563e-02 5.702300e-16 3 
    6.094260 7.082847e-02 5.721200e-16 3 
    6.124510 8.017432e-02 6.412300e-16 3 
    6.154750 9.737676e-02 7.711800e-16 3 
    6.184990 1.416422e-01 1.110800e-15 3 
    6.215230 1.954760e-01 1.518100e-15 3 
    6.245470 2.201623e-01 1.693300e-15 3 
    6.275720 2.051416e-01 1.562600e-15 3 
    6.305960 1.699694e-01 1.282300e-15 3 
    6.336200 1.442765e-01 1.078100e-15 3 
    6.366440 1.274204e-01 9.431200e-16 3 
    6.396680 1.125559e-01 8.252400e-16 3 
    6.426930 9.628571e-02 6.993200e-16 3 
    6.457170 8.463260e-02 6.089400e-16 3 
    6.487410 7.342970e-02 5.234200e-16 3 
    6.517650 6.954503e-02 4.911400e-16 3 
    6.547890 8.071622e-02 5.647800e-16 3 
    6.578140 7.124434e-02 4.939300e-16 3 
    6.608380 7.044663e-02 4.839400e-16 3 
    6.638620 7.770795e-02 5.289700e-16 3 
    6.668860 7.771334e-02 5.242200e-16 3 
    6.699100 7.457816e-02 4.985400e-16 3 
    6.729350 7.554453e-02 5.004700e-16 3 
    6.759590 7.862537e-02 5.162300e-16 3 
    6.789830 7.842990e-02 5.103700e-16 3 
    6.820070 7.792848e-02 5.026200e-16 3 
    6.850310 7.720076e-02 4.935400e-16 3 
    6.880560 8.191131e-02 5.190600e-16 3 
    6.910800 8.139753e-02 5.113000e-16 3 
    6.941040 8.783498e-02 5.469400e-16 3 
    6.971280 9.933097e-02 6.131700e-16 3 
    7.001520 1.562031e-01 9.559300e-16 3 
    7.031770 1.621212e-01 9.836300e-16 3 
    7.062010 1.127207e-01 6.780600e-16 3 
    7.092250 9.766082e-02 5.824700e-16 3 
    7.122490 9.844806e-02 5.821900e-16 3 
    7.152730 1.090611e-01 6.395100e-16 3 
    7.182980 1.132274e-01 6.583600e-16 3 
    7.213220 1.166750e-01 6.727300e-16 3 
    7.243460 1.153013e-01 6.592700e-16 3 
    7.273700 1.210664e-01 6.864900e-16 3 
    7.303940 1.292664e-01 7.269300e-16 3 
    7.334190 1.358439e-01 7.576300e-16 3 
    7.364430 1.448413e-01 8.011900e-16 3 
    7.394670 1.633709e-01 8.963100e-16 3 
    7.424910 1.670160e-01 9.088600e-16 3 
    7.455150 1.894882e-01 1.022800e-15 3 
    7.485400 2.102291e-01 1.125600e-15 3 
    7.515640 2.176549e-01 1.156000e-15 3 
    7.545880 2.322025e-01 1.223400e-15 3 
    7.576120 2.499283e-01 1.306300e-15 3 
    7.636600 3.183367e-01 1.637600e-15 3 
    7.697090 3.112150e-01 1.575900e-15 3 
    7.757570 2.918524e-01 1.454900e-15 3 
    7.818050 2.750282e-01 1.349900e-15 3 
    7.878540 2.680036e-01 1.295300e-15 3 
    7.939020 2.533937e-01 1.206100e-15 3 
    7.999510 2.280681e-01 1.069200e-15 3 
    8.059990 2.072767e-01 9.572000e-16 3 
    8.120470 1.756630e-01 7.991700e-16 3 
    8.180959 1.611517e-01 7.223500e-16 3 
    8.241440 1.598302e-01 7.059500e-16 3 
    8.301920 1.649622e-01 7.180400e-16 3 
    8.362409 1.648201e-01 7.070800e-16 3 
    8.422890 1.702847e-01 7.200700e-16 3 
    8.483370 1.705224e-01 7.108300e-16 3 
    8.543860 1.912901e-01 7.861500e-16 3 
    8.604340 2.069417e-01 8.385600e-16 3 
    8.664830 2.079145e-01 8.307800e-16 3 
    8.725310 1.908833e-01 7.521900e-16 3 
    8.785791 1.644098e-01 6.389800e-16 3 
    8.846280 1.547604e-01 5.932800e-16 3 
    8.906760 1.309031e-01 4.950300e-16 3 
    8.967241 1.297652e-01 4.841300e-16 3 
    9.027730 1.496202e-01 5.507500e-16 3 
    9.088210 1.267622e-01 4.604200e-16 3 
    9.148690 1.129930e-01 4.050000e-16 3 
    9.209180 1.120525e-01 3.963700e-16 3 
    9.269660 1.068927e-01 3.732000e-16 3 
    9.330150 1.131817e-01 3.900500e-16 3 
    9.390630 1.094980e-01 3.725100e-16 3 
    9.451110 1.089002e-01 3.657500e-16 3 
    9.511599 1.121804e-01 3.719900e-16 3 
    9.572080 1.156854e-01 3.787800e-16 3 
    9.632560 1.137002e-01 3.676200e-16 3 
    9.693050 1.211020e-01 3.866800e-16 3 
    9.753530 1.179977e-01 3.721100e-16 3 
    9.814009 1.136386e-01 3.539600e-16 3 
    9.874500 1.108673e-01 3.411100e-16 3 
    9.934980 1.111570e-01 3.378500e-16 3 
    9.995470 1.130209e-01 3.393700e-16 3 
   10.055950 1.139781e-01 3.381400e-16 3 
   10.116430 1.135111e-01 3.327400e-16 3 
   10.176920 1.118346e-01 3.239400e-16 3 
   10.237400 1.157983e-01 3.314700e-16 3 
   10.297880 1.170469e-01 3.311200e-16 3 
   10.358370 1.176034e-01 3.288200e-16 3 
   10.418850 1.199432e-01 3.314800e-16 3 
   10.479330 1.264718e-01 3.455000e-16 3 
   10.539820 1.387191e-01 3.746200e-16 3 
   10.600300 1.418738e-01 3.787800e-16 3 
   10.660791 1.431301e-01 3.778100e-16 3 
   10.721270 1.413831e-01 3.690000e-16 3 
   10.781750 1.450558e-01 3.743500e-16 3 
   10.842241 1.477147e-01 3.769700e-16 3 
   10.902720 1.529293e-01 3.859600e-16 3 
   10.963200 1.579079e-01 3.941400e-16 3 
   11.023690 1.711472e-01 4.225100e-16 3 
   11.084170 1.915328e-01 4.676900e-16 3 
   11.144651 2.025382e-01 4.892100e-16 3 
   11.205140 2.541069e-01 6.071600e-16 3 
   11.265620 3.411581e-01 8.064300e-16 3 
   11.326110 3.727412e-01 8.717000e-16 3 
   11.386590 3.251992e-01 7.524600e-16 3 
   11.447070 2.881163e-01 6.596300e-16 3 
   11.507560 2.558254e-01 5.795600e-16 3 
   11.568040 2.332430e-01 5.228900e-16 3 
   11.628520 2.273090e-01 5.043000e-16 3 
   11.689009 2.209218e-01 4.850700e-16 3 
   11.749490 2.224592e-01 4.834300e-16 3 
   11.809970 2.205060e-01 4.742900e-16 3 
   11.870459 2.218969e-01 4.724300e-16 3 
   11.930940 2.261994e-01 4.767200e-16 3 
   11.991430 2.367383e-01 4.939100e-16 3 
   12.051910 2.390162e-01 4.936700e-16 3 
   12.112390 2.427610e-01 4.964100e-16 3 
   12.172880 2.441397e-01 4.942800e-16 3 
   12.233360 2.440126e-01 4.891500e-16 3 
   12.293841 2.493584e-01 4.949600e-16 3 
   12.354330 2.627720e-01 5.164900e-16 3 
   12.414810 2.701598e-01 5.258500e-16 3 
   12.475291 2.758333e-01 5.317000e-16 3 
   12.535780 2.840567e-01 5.422800e-16 3 
   12.596260 2.961126e-01 5.598800e-16 3 
   12.656750 3.069464e-01 5.748300e-16 3 
   12.717230 3.217200e-01 5.967800e-16 3 
   12.777710 3.551827e-01 6.526300e-16 3 
   12.838200 5.369431e-01 9.773300e-16 3 
   12.898680 6.634518e-01 1.196300e-15 3 
   12.959160 4.274069e-01 7.635000e-16 3 
   13.019651 2.908418e-01 5.147300e-16 3 
   13.080130 2.739148e-01 4.803000e-16 3 
   13.140609 2.669335e-01 4.637600e-16 3 
   13.201100 2.687926e-01 4.627200e-16 3 
   13.261580 2.782080e-01 4.745700e-16 3 
   13.322059 2.761842e-01 4.668500e-16 3 
   13.382550 2.734685e-01 4.580900e-16 3 
   13.443030 2.888429e-01 4.795000e-16 3 
   13.503520 2.858563e-01 4.703000e-16 3 
   13.564000 2.934760e-01 4.785400e-16 3 
   13.624480 2.934321e-01 4.742300e-16 3 
   13.684970 2.972171e-01 4.761100e-16 3 
   13.745450 2.998500e-01 4.761100e-16 3 
   13.805930 3.039367e-01 4.783800e-16 3 
   13.866420 3.023566e-01 4.717500e-16 3 
   13.926900 3.073726e-01 4.754200e-16 3 
   13.987380 3.148087e-01 4.827200e-16 3 
   14.047870 3.282532e-01 4.990100e-16 3 
   14.108350 3.195676e-01 4.816500e-16 3 
   14.168841 3.278079e-01 4.898600e-16 3 
   14.229320 3.231208e-01 4.787600e-16 3 
   14.289800 3.215580e-01 4.724200e-16 3 
   14.350291 3.128570e-01 4.557700e-16 3 
   14.410770 3.142121e-01 4.539100e-16 3 
   14.471250 3.063492e-01 4.388600e-16 3 
   14.577409 3.297801e-01 4.655700e-16 3 
   14.662091 3.389183e-01 4.729600e-16 3 
   14.746770 3.472807e-01 4.790800e-16 3 
   14.831450 3.508332e-01 4.784700e-16 3 
   14.916120 3.569788e-01 4.813400e-16 3 
   15.000800 3.668491e-01 4.890800e-16 3 
   15.085480 3.646533e-01 4.807100e-16 3 
   15.170150 3.666026e-01 4.779000e-16 3 
   15.254830 3.759195e-01 4.846200e-16 3 
   15.339509 3.809437e-01 4.856900e-16 3 
   15.424180 3.914653e-01 4.936400e-16 3 
   15.508859 4.083388e-01 5.093100e-16 3 
   15.593541 4.400602e-01 5.429300e-16 3 
   15.678211 4.640085e-01 5.663100e-16 3 
   15.762891 4.310104e-01 5.204000e-16 3 
   15.847570 4.281528e-01 5.114400e-16 3 
   15.932239 4.491886e-01 5.308800e-16 3 
   16.016920 4.685478e-01 5.479200e-16 3 
   16.101600 4.787523e-01 5.539800e-16 3 
   16.186280 4.894515e-01 5.604500e-16 3 
   16.270950 4.972154e-01 5.634300e-16 3 
   16.355631 5.184101e-01 5.813800e-16 3 
   16.440309 5.662625e-01 6.285200e-16 3 
   16.524981 5.939928e-01 6.525600e-16 3 
   16.609659 5.839569e-01 6.350100e-16 3 
   16.694339 5.716435e-01 6.153300e-16 3 
   16.779011 5.833597e-01 6.216200e-16 3 
   16.863689 6.014912e-01 6.345200e-16 3 
   16.948370 6.057183e-01 6.326100e-16 3 
   17.033039 6.227230e-01 6.439200e-16 3 
   17.117720 6.560148e-01 6.716500e-16 3 
   17.202400 6.448449e-01 6.537300e-16 3 
   17.287069 6.375611e-01 6.400300e-16 3 
   17.371750 6.561251e-01 6.522600e-16 3 
   17.456430 6.686014e-01 6.582300e-16 3 
   17.541109 6.632167e-01 6.466400e-16 3 
   17.625780 6.522477e-01 6.298500e-16 3 
   17.710461 6.535428e-01 6.250800e-16 3 
   17.795139 6.549201e-01 6.204500e-16 3 
   17.879811 6.686480e-01 6.274700e-16 3 
   17.964491 6.747599e-01 6.272500e-16 3 
   18.049170 6.832536e-01 6.292000e-16 3 
   18.133841 6.860400e-01 6.258800e-16 3 
   18.218519 6.960799e-01 6.291500e-16 3 
   18.303200 7.044530e-01 6.308400e-16 3 
   18.387870 7.183565e-01 6.373800e-16 3 
   18.472550 7.246696e-01 6.371000e-16 3 
   18.557230 7.308925e-01 6.367200e-16 3 
   18.641898 7.420951e-01 6.406200e-16 3 
   18.726580 9.225464e-01 7.892100e-16 3 
   18.811261 1.157700e+00 9.814801e-16 3 
   18.895941 1.008423e+00 8.472800e-16 3 
   18.980609 8.071104e-01 6.721000e-16 3 
   19.065291 7.634645e-01 6.301200e-16 3 
   19.149969 7.564849e-01 6.188500e-16 3 
   19.234641 7.720316e-01 6.260200e-16 3 
   19.319320 7.871177e-01 6.326700e-16 3 
   19.404000 7.924390e-01 6.314000e-16 3 
   19.488670 7.936600e-01 6.268900e-16 3 
   19.573352 7.968687e-01 6.239900e-16 3 
   19.658030 7.969256e-01 6.186700e-16 3 
   19.742700 8.032077e-01 6.182100e-16 3 
   19.827380 7.902337e-01 6.030400e-16 3 
   19.912059 8.011876e-01 6.062100e-16 3 
   19.996731 8.111481e-01 6.085600e-16 3 
   20.081409 8.082063e-01 6.012500e-16 3 
   20.166091 8.084217e-01 5.963700e-16 3 
   20.250770 8.068047e-01 5.902100e-16 3 
   20.335439 8.183071e-01 5.936500e-16 3 
   20.420120 8.140587e-01 5.856800e-16 3 
   20.589470 8.470047e-01 5.994000e-16 3 
   20.758830 8.387603e-01 5.839200e-16 3 
   20.928181 8.821239e-01 6.042100e-16 3 
   21.097530 8.230747e-01 5.547500e-16 3 
   21.266889 8.714844e-01 5.780600e-16 3 
   21.436239 9.139701e-01 5.967000e-16 3 
   21.605600 8.784901e-01 5.645800e-16 3 
   21.774950 9.045962e-01 5.723500e-16 3 
   21.944300 9.463626e-01 5.895700e-16 3 
   22.113661 9.593313e-01 5.885300e-16 3 
   22.283011 9.702412e-01 5.862100e-16 3 
   22.452359 9.738535e-01 5.795500e-16 3 
   22.621719 1.000695e+00 5.866400e-16 3 
   22.791070 1.024772e+00 5.918600e-16 3 
   22.960430 1.032520e+00 5.875700e-16 3 
   23.129780 1.037357e+00 5.817100e-16 3 
   23.299130 1.063714e+00 5.878500e-16 3 
   23.468491 1.072496e+00 5.841800e-16 3 
   23.637841 1.102837e+00 5.921300e-16 3 
   23.807191 1.123268e+00 5.945500e-16 3 
   23.976548 1.125318e+00 5.872500e-16 3 
   24.145900 1.096941e+00 5.644400e-16 3 
   24.315259 1.097937e+00 5.571100e-16 3 
   24.484609 1.084428e+00 5.426700e-16 3 
   24.653959 1.104445e+00 5.451200e-16 3 
   24.823320 1.120062e+00 5.453100e-16 3 
   24.992670 1.126839e+00 5.412000e-16 3 
   25.162020 1.111117e+00 5.264900e-16 3 
   25.331381 1.116607e+00 5.220400e-16 3 
   25.500731 1.133039e+00 5.227100e-16 3 
   25.670089 1.148578e+00 5.229100e-16 3 
   25.839439 1.159131e+00 5.208200e-16 3 
   26.008789 1.191038e+00 5.282100e-16 3 
   26.178150 1.195041e+00 5.231500e-16 3 
   26.347500 1.199886e+00 5.185400e-16 3 
   26.516850 1.202211e+00 5.129300e-16 3 
   26.686209 1.219445e+00 5.137000e-16 3 
   26.855559 1.261223e+00 5.246200e-16 3 
   27.024919 1.277546e+00 5.247700e-16 3 
   27.194269 1.285719e+00 5.215700e-16 3 
   27.363622 1.299661e+00 5.207200e-16 3 
   27.532981 1.296342e+00 5.130200e-16 3 
   27.702328 1.303563e+00 5.095900e-16 3 
   27.871678 1.339282e+00 5.172100e-16 3 
   28.041041 1.354874e+00 5.169300e-16 3 
   28.210391 1.369192e+00 5.161400e-16 3 
   28.379750 1.366566e+00 5.090200e-16 3 
   28.549100 1.386511e+00 5.103400e-16 3 
   28.718450 1.395558e+00 5.076300e-16 3 
   28.887809 1.377379e+00 4.951600e-16 3 
   29.057159 1.379757e+00 4.902500e-16 3 
   29.226509 1.385694e+00 4.866700e-16 3 
   29.395869 1.423259e+00 4.941200e-16 3 
   29.565219 1.457624e+00 5.002700e-16 3 
   29.734578 1.464056e+00 4.967700e-16 3 
   29.903931 1.504329e+00 5.046700e-16 3 
   30.073281 1.501097e+00 4.979300e-16 3 
   30.242641 1.508509e+00 4.948000e-16 3 
   30.411991 1.513242e+00 4.908400e-16 3 
   30.581341 1.529955e+00 4.907800e-16 3 
   30.750700 1.564315e+00 4.962900e-16 3 
   30.920050 1.568750e+00 4.922600e-16 3 
   31.089409 1.572096e+00 4.879500e-16 3 
   31.258759 1.609789e+00 4.942500e-16 3 
   31.428109 1.609730e+00 4.889200e-16 3 
   31.597469 1.644897e+00 4.942600e-16 3 
   31.766822 1.668463e+00 4.960100e-16 3 
   31.936172 1.681847e+00 4.947000e-16 3 
   32.105531 1.701587e+00 4.952400e-16 3 
   32.274878 1.744550e+00 5.024300e-16 3 
   32.444241 1.805434e+00 5.145500e-16 3 
   32.613591 1.860246e+00 5.246800e-16 3 
   32.782941 1.868009e+00 5.214400e-16 3 
   32.952300 1.885296e+00 5.208700e-16 3 
   33.121650 1.942718e+00 5.312600e-16 3 
   33.291000 2.007373e+00 5.433700e-16 3 
   33.460363 2.158618e+00 5.784100e-16 3 
   33.629713 2.643915e+00 7.013300e-16 3 
   33.799069 2.159626e+00 5.671400e-16 3 
   33.968419 2.164514e+00 5.627700e-16 3 
   34.137772 2.085422e+00 5.368400e-16 3 
   34.307128 2.083841e+00 5.311500e-16 3 
   34.476478 2.086279e+00 5.265600e-16 3 
   34.645828 2.119029e+00 5.296100e-16 3 
   34.815191 2.349813e+00 5.815900e-16 3 
   34.984538 2.499159e+00 6.125800e-16 3 
