# NGC 3690       
# 
# An Atlas of Galaxy Spectral Energy Distributions from the Ultraviolet to the Mid-Infrared
# Brown et al. (2014)
# http://dx.doi.org/10.5072/03/529D3551F0117
# http://dx.doi.org/10.17909/t9-5bxk-dh29
# 
# The Spectral Energy Distributions of Active Galactic Nuclei
# Brown et al. (2019)
# http://dx.doi.org/10.17909/t9-3dbt-8734
# 
# Column 1: Observed wavelength (um)
# Column 2: f_nu (Jy)
# Column 3: f_lam (erg/s/cm2/A)
# Column 4: Source (0 = model, 1 = Optical Spectrun, 2 = Akari, 3 = Spitzer IRS)
# 
    0.010304 5.262259e-16 1.486900e-24 0 
    0.010520 7.837677e-16 2.124600e-24 0 
    0.010715 1.180719e-15 3.085200e-24 0 
    0.010914 1.803566e-15 4.542400e-24 0 
    0.011117 3.070001e-15 7.452200e-24 0 
    0.011508 6.168337e-15 1.397300e-23 0 
    0.011912 1.153802e-14 2.439400e-23 0 
    0.012218 5.396953e-14 1.084600e-22 0 
    0.012618 9.081031e-14 1.711100e-22 0 
    0.012823 1.135384e-13 2.071500e-22 0 
    0.012942 1.297698e-13 2.324300e-22 0 
    0.013243 1.766573e-13 3.021900e-22 0 
    0.013335 2.234336e-13 3.769500e-22 0 
    0.013552 2.717507e-13 4.439000e-22 0 
    0.013836 4.170473e-13 6.535600e-22 0 
    0.014158 5.510208e-13 8.246800e-22 0 
    0.014454 1.875597e-12 2.693300e-21 0 
    0.014859 6.125521e-12 8.323100e-21 0 
    0.015241 8.150989e-12 1.052700e-20 0 
    0.015668 1.094459e-11 1.337500e-20 0 
    0.016069 1.459246e-11 1.695400e-20 0 
    0.016368 1.787148e-11 2.001200e-20 0 
    0.016788 2.366773e-11 2.519300e-20 0 
    0.017179 3.028009e-11 3.078100e-20 0 
    0.017498 3.657116e-11 3.583300e-20 0 
    0.017865 4.604389e-11 4.328000e-20 0 
    0.018197 5.472157e-11 4.957700e-20 0 
    0.018408 6.126036e-11 5.423600e-20 0 
    0.018793 7.588475e-11 6.445900e-20 0 
    0.019320 9.889587e-11 7.948500e-20 0 
    0.019588 1.153832e-10 9.021600e-20 0 
    0.019999 1.400127e-10 1.050200e-19 0 
    0.020417 1.702709e-10 1.225400e-19 0 
    0.020701 1.950532e-10 1.365500e-19 0 
    0.021232 2.334231e-10 1.553400e-19 0 
    0.021827 3.156110e-10 1.987400e-19 0 
    0.022233 3.742558e-10 2.271400e-19 0 
    0.022542 4.179805e-10 2.467700e-19 0 
    0.022961 4.933433e-10 2.807300e-19 0 
    0.023227 8.187533e-10 4.552900e-19 0 
    0.023659 1.535166e-09 8.227800e-19 0 
    0.024266 2.213837e-09 1.127900e-18 0 
    0.024831 2.438568e-09 1.186500e-18 0 
    0.025468 3.007214e-09 1.390900e-18 0 
    0.025942 2.871862e-09 1.280200e-18 0 
    0.026242 3.533196e-09 1.539200e-18 0 
    0.026669 4.066134e-09 1.715100e-18 0 
    0.027164 4.530601e-09 1.842000e-18 0 
    0.027669 5.025225e-09 1.969200e-18 0 
    0.028184 5.574134e-09 2.105200e-18 0 
    0.028708 6.168482e-09 2.245400e-18 0 
    0.029309 6.609567e-09 2.308300e-18 0 
    0.029923 7.536464e-09 2.525100e-18 0 
    0.030409 8.150062e-09 2.644100e-18 0 
    0.031117 9.336038e-09 2.892600e-18 0 
    0.032137 1.125049e-08 3.268000e-18 0 
    0.033113 1.312695e-08 3.591600e-18 0 
    0.034119 1.510622e-08 3.893000e-18 0 
    0.035156 1.726491e-08 4.190700e-18 0 
    0.036058 1.941644e-08 4.480100e-18 0 
    0.036983 2.193631e-08 4.811500e-18 0 
    0.037931 2.433040e-08 5.073200e-18 0 
    0.038905 2.631341e-08 5.215400e-18 0 
    0.039902 3.014083e-08 5.679200e-18 0 
    0.040926 3.366345e-08 6.029500e-18 0 
    0.041783 3.657316e-08 6.284700e-18 0 
    0.042658 3.918916e-08 6.460800e-18 0 
    0.043451 4.189512e-08 6.657100e-18 0 
    0.044566 4.646945e-08 7.019100e-18 0 
    0.045604 5.025378e-08 7.249100e-18 0 
    0.046452 5.360090e-08 7.452200e-18 0 
    0.047534 5.809954e-08 7.714100e-18 0 
    0.048529 6.326565e-08 8.059100e-18 0 
    0.049545 6.732280e-08 8.227800e-18 0 
    0.050466 7.347823e-08 8.655300e-18 0 
    0.051168 8.895649e-08 1.019300e-17 0 
    0.051761 2.168545e-07 2.428200e-17 0 
    0.052602 2.416396e-07 2.619900e-17 0 
    0.053580 2.730050e-07 2.852900e-17 0 
    0.054576 2.819486e-07 2.839800e-17 0 
    0.055590 4.437699e-07 4.308100e-17 0 
    0.056624 5.703753e-07 5.336800e-17 0 
    0.057544 6.936867e-07 6.284700e-17 0 
    0.058614 7.017215e-07 6.127500e-17 0 
    0.059566 9.553399e-07 8.077600e-17 0 
    0.060674 1.069464e-06 8.715300e-17 0 
    0.061659 1.374489e-06 1.084600e-16 0 
    0.062661 1.667804e-06 1.274300e-16 0 
    0.063680 1.941602e-06 1.436400e-16 0 
    0.064714 2.056679e-06 1.473300e-16 0 
    0.065615 2.524501e-06 1.759100e-16 0 
    0.066527 2.865290e-06 1.942200e-16 0 
    0.067143 3.127326e-06 2.081100e-16 0 
    0.068234 3.297294e-06 2.124600e-16 0 
    0.069183 3.413261e-06 2.139400e-16 0 
    0.070146 4.810243e-06 2.932800e-16 0 
    0.071285 4.788007e-06 2.826700e-16 0 
    0.072277 6.125795e-06 3.517900e-16 0 
    0.073282 6.685784e-06 3.734900e-16 0 
    0.074302 7.263884e-06 3.947200e-16 0 
    0.075336 8.733100e-06 4.616200e-16 0 
    0.076208 9.753578e-06 5.038300e-16 0 
    0.077268 1.084334e-05 5.448600e-16 0 
    0.078343 1.239268e-05 6.057400e-16 0 
    0.079250 1.400105e-05 6.687800e-16 0 
    0.080353 1.517625e-05 7.051500e-16 0 
    0.081283 1.644993e-05 7.469400e-16 0 
    0.082414 1.770783e-05 7.821400e-16 0 
    0.083368 2.033126e-05 8.775800e-16 0 
    0.084333 1.660191e-05 7.003000e-16 0 
    0.085310 2.281201e-05 9.403400e-16 0 
    0.086298 2.427536e-05 9.778799e-16 0 
    0.087498 2.730094e-05 1.069800e-15 0 
    0.088512 3.042087e-05 1.164900e-15 0 
    0.089331 3.436998e-05 1.292100e-15 0 
    0.090365 3.759822e-05 1.381300e-15 0 
    0.091411 3.865194e-05 1.387700e-15 0 
    0.092470 6.268519e-05 2.199300e-15 0 
    0.093541 4.933496e-04 1.691500e-14 0 
    0.094406 1.074401e-03 3.616500e-14 0 
    0.095499 1.919377e-03 6.313700e-14 0 
    0.096605 2.536083e-03 8.152400e-14 0 
    0.097499 2.736286e-03 8.635400e-14 0 
    0.098628 4.296954e-04 1.325200e-14 0 
    0.099541 2.009855e-03 6.085300e-14 0 
    0.100462 2.312958e-03 6.875200e-14 0 
    0.101625 3.590576e-03 1.043000e-13 0 
    0.102565 3.751282e-03 1.069800e-13 0 
    0.103514 2.138744e-03 5.988000e-14 0 
    0.104472 2.986507e-03 8.208900e-14 0 
    0.105682 5.274225e-03 1.416700e-13 0 
    0.106660 5.083714e-03 1.340600e-13 0 
    0.107647 4.047259e-03 1.047800e-13 0 
    0.108643 4.910961e-03 1.248200e-13 0 
    0.109648 4.112960e-03 1.026300e-13 0 
    0.110662 5.509919e-03 1.349800e-13 0 
    0.111686 5.189917e-03 1.248200e-13 0 
    0.112720 5.095448e-03 1.203100e-13 0 
    0.113763 4.326948e-03 1.003000e-13 0 
    0.114551 5.890435e-03 1.346700e-13 0 
    0.115611 5.535712e-03 1.242500e-13 0 
    0.116681 5.890522e-03 1.298000e-13 0 
    0.117761 6.000071e-03 1.298000e-13 0 
    0.118850 3.565843e-03 7.573300e-14 0 
    0.119674 6.125940e-03 1.283200e-13 0 
    0.120781 5.238083e-03 1.077200e-13 0 
    0.121619 3.699718e-03 7.503900e-14 0 
    0.122744 3.289781e-03 6.550700e-14 0 
    0.123880 5.599849e-03 1.094700e-13 0 
    0.124738 7.213935e-03 1.390900e-13 0 
    0.125893 7.553657e-03 1.429800e-13 0 
    0.126765 7.347985e-03 1.371800e-13 0 
    0.127938 7.263631e-03 1.331300e-13 0 
    0.128825 8.339983e-03 1.507600e-13 0 
    0.129718 8.613058e-03 1.535600e-13 0 
    0.130918 6.841526e-03 1.197500e-13 0 
    0.131826 7.348038e-03 1.268500e-13 0 
    0.132739 9.040051e-03 1.539200e-13 0 
    0.133968 8.633311e-03 1.443100e-13 0 
    0.134896 8.131601e-03 1.340600e-13 0 
    0.135831 9.186901e-03 1.493800e-13 0 
    0.136773 9.123333e-03 1.463100e-13 0 
    0.138038 8.417003e-03 1.325200e-13 0 
    0.138995 8.573398e-03 1.331300e-13 0 
    0.139959 8.633314e-03 1.322200e-13 0 
    0.140929 6.473886e-03 9.778800e-14 0 
    0.141906 7.066184e-03 1.052700e-13 0 
    0.142889 8.301660e-03 1.219800e-13 0 
    0.143880 8.455855e-03 1.225400e-13 0 
    0.144877 8.895284e-03 1.271400e-13 0 
    0.145546 9.314445e-03 1.319100e-13 0 
    0.146218 9.335805e-03 1.310000e-13 0 
    0.146893 9.165426e-03 1.274300e-13 0 
    0.147911 8.514786e-03 1.167600e-13 0 
    0.148936 8.915658e-03 1.205800e-13 0 
    0.149969 9.081744e-03 1.211400e-13 0 
    0.151008 9.208019e-03 1.211400e-13 0 
    0.152055 8.553897e-03 1.109900e-13 0 
    0.152757 7.588678e-03 9.756300e-14 0 
    0.153109 8.057141e-03 1.031100e-13 0 
    0.154170 8.378357e-03 1.057500e-13 0 
    0.155239 7.131259e-03 8.877400e-14 0 
    0.155955 7.213732e-03 8.897800e-14 0 
    0.157036 7.197192e-03 8.755600e-14 0 
    0.158125 7.928031e-03 9.512300e-14 0 
    0.159221 8.713250e-03 1.031100e-13 0 
    0.160325 9.144664e-03 1.067300e-13 0 
    0.161065 9.250894e-03 1.069800e-13 0 
    0.162181 9.553133e-03 1.089600e-13 0 
    0.163305 9.663784e-03 1.087100e-13 0 
    0.164059 9.444598e-03 1.052700e-13 0 
    0.165196 1.037919e-02 1.141000e-13 0 
    0.166341 1.064531e-02 1.154200e-13 0 
    0.167109 1.037895e-02 1.115000e-13 0 
    0.168267 1.114714e-02 1.181100e-13 0 
    0.169044 1.049973e-02 1.102300e-13 0 
    0.169434 1.172621e-02 1.225400e-13 0 
    0.170216 1.186175e-02 1.228200e-13 0 
    0.171396 1.132859e-02 1.156900e-13 0 
    0.172187 1.117249e-02 1.130500e-13 0 
    0.173380 1.066952e-02 1.064800e-13 0 
    0.174181 1.071878e-02 1.059900e-13 0 
    0.175388 1.159175e-02 1.130500e-13 0 
    0.176198 1.140724e-02 1.102300e-13 0 
    0.177419 1.205483e-02 1.148900e-13 0 
    0.178238 1.169938e-02 1.104800e-13 0 
    0.179473 1.145944e-02 1.067300e-13 0 
    0.180302 1.197191e-02 1.104800e-13 0 
    0.181552 1.276914e-02 1.162200e-13 0 
    0.182390 1.303699e-02 1.175700e-13 0 
    0.183231 1.169928e-02 1.045400e-13 0 
    0.184502 1.247829e-02 1.099700e-13 0 
    0.185353 1.216651e-02 1.062400e-13 0 
    0.186209 1.117282e-02 9.666800e-14 0 
    0.187499 1.143304e-02 9.756300e-14 0 
    0.188365 1.186261e-02 1.003000e-13 0 
    0.189234 1.294633e-02 1.084600e-13 0 
    0.190546 1.172632e-02 9.689100e-14 0 
    0.191426 1.107049e-02 9.063300e-14 0 
    0.192309 1.236457e-02 1.003000e-13 0 
    0.193642 1.169938e-02 9.360200e-14 0 
    0.194536 1.140676e-02 9.042400e-14 0 
    0.195434 1.230727e-02 9.666800e-14 0 
    0.196336 1.288782e-02 1.003000e-13 0 
    0.197697 1.183493e-02 9.084200e-14 0 
    0.198610 1.330906e-02 1.012200e-13 0 
    0.199526 1.400140e-02 1.055100e-13 0 
    0.200447 1.318755e-02 9.846600e-14 0 
    0.201372 1.306651e-02 9.666800e-14 0 
    0.202768 1.390505e-02 1.014600e-13 0 
    0.203704 1.374560e-02 9.937700e-14 0 
    0.204645 1.452663e-02 1.040600e-13 0 
    0.205589 1.343268e-02 9.534200e-14 0 
    0.206538 1.409816e-02 9.914800e-14 0 
    0.207491 1.361952e-02 9.490400e-14 0 
    0.208449 1.390475e-02 9.600300e-14 0 
    0.209411 1.517605e-02 1.038200e-13 0 
    0.209894 1.374561e-02 9.360200e-14 0 
    0.210863 1.476267e-02 9.960600e-14 0 
    0.211836 1.403345e-02 9.381800e-14 0 
    0.212814 1.466106e-02 9.711500e-14 0 
    0.213796 1.496793e-02 9.823900e-14 0 
    0.214783 1.531666e-02 9.960600e-14 0 
    0.215774 1.493346e-02 9.622400e-14 0 
    0.216770 1.469479e-02 9.381800e-14 0 
    0.217771 1.556557e-02 9.846600e-14 0 
    0.218776 1.560140e-02 9.778800e-14 0 
    0.219786 1.563742e-02 9.711500e-14 0 
    0.220801 1.531676e-02 9.425100e-14 0 
    0.221820 1.600167e-02 9.756300e-14 0 
    0.222844 1.600160e-02 9.666800e-14 0 
    0.223872 1.570953e-02 9.403400e-14 0 
    0.224905 1.542270e-02 9.147100e-14 0 
    0.225944 1.589157e-02 9.338700e-14 0 
    0.226986 1.596481e-02 9.295800e-14 0 
    0.228034 1.556553e-02 8.980200e-14 0 
    0.229087 1.607541e-02 9.189300e-14 0 
    0.229615 1.622429e-02 9.231800e-14 0 
    0.230675 1.656670e-02 9.340200e-14 0 
    0.231739 1.560823e-02 8.719200e-14 0 
    0.232809 1.631060e-02 9.028000e-14 0 
    0.233884 1.583396e-02 8.683800e-14 0 
    0.234963 1.326492e-02 7.208200e-14 0 
    0.236048 1.530461e-02 8.240300e-14 0 
    0.237137 1.548608e-02 8.261600e-14 0 
    0.237684 1.599562e-02 8.494200e-14 0 
    0.238781 1.563579e-02 8.227000e-14 0 
    0.239883 1.578486e-02 8.229300e-14 0 
    0.240991 1.550105e-02 8.007200e-14 0 
    0.242103 1.601331e-02 8.196000e-14 0 
    0.243220 1.572543e-02 7.974900e-14 0 
    0.243781 1.594643e-02 8.049800e-14 0 
    0.244906 1.647362e-02 8.239700e-14 0 
    0.246037 1.606618e-02 7.962200e-14 0 
    0.247172 1.671226e-02 8.206500e-14 0 
    0.248313 1.683279e-02 8.189900e-14 0 
    0.248886 1.668097e-02 8.078700e-14 0 
    0.250035 1.649483e-02 7.915300e-14 0 
    0.251189 1.665227e-02 7.917600e-14 0 
    0.252348 1.487978e-02 7.010000e-14 0 
    0.252930 1.689116e-02 7.921000e-14 0 
    0.254097 1.598766e-02 7.428600e-14 0 
    0.254683 1.674363e-02 7.744100e-14 0 
    0.255270 1.640256e-02 7.551500e-14 0 
    0.255859 1.648074e-02 7.552600e-14 0 
    0.257040 1.625950e-02 7.382900e-14 0 
    0.258226 1.703069e-02 7.662200e-14 0 
    0.259418 1.695767e-02 7.559400e-14 0 
    0.260016 1.747540e-02 7.754400e-14 0 
    0.261216 1.748059e-02 7.685600e-14 0 
    0.262422 1.748605e-02 7.617500e-14 0 
    0.263027 1.724876e-02 7.479600e-14 0 
    0.264241 1.721424e-02 7.396200e-14 0 
    0.265461 1.762068e-02 7.501400e-14 0 
    0.266072 1.786825e-02 7.571900e-14 0 
    0.267301 1.858743e-02 7.804400e-14 0 
    0.268534 1.893863e-02 7.879000e-14 0 
    0.269154 1.788205e-02 7.405200e-14 0 
    0.270396 1.851612e-02 7.597500e-14 0 
    0.271019 1.860448e-02 7.598700e-14 0 
    0.272270 1.806151e-02 7.309300e-14 0 
    0.273527 1.823440e-02 7.311600e-14 0 
    0.274157 1.802837e-02 7.195800e-14 0 
    0.275423 1.824305e-02 7.214700e-14 0 
    0.276058 1.862804e-02 7.333100e-14 0 
    0.277332 1.759130e-02 6.861500e-14 0 
    0.278612 1.788291e-02 6.911300e-14 0 
    0.279254 1.821834e-02 7.008600e-14 0 
    0.280543 1.882110e-02 7.174100e-14 0 
    0.281190 1.839565e-02 6.979700e-14 0 
    0.282488 1.686003e-02 6.338400e-14 0 
    0.283139 1.753588e-02 6.562200e-14 0 
    0.284446 1.901374e-02 7.050000e-14 0 
    0.285759 1.946296e-02 7.150400e-14 0 
    0.286418 1.876201e-02 6.861200e-14 0 
    0.287740 1.894196e-02 6.863500e-14 0 
    0.288403 1.864203e-02 6.723800e-14 0 
    0.289734 1.961729e-02 7.010700e-14 0 
    0.290402 1.962043e-02 6.979600e-14 0 
    0.291743 1.967239e-02 6.933900e-14 0 
    0.292415 1.963030e-02 6.887300e-14 0 
    0.293765 2.032689e-02 7.066300e-14 0 
    0.295801 2.019722e-02 6.924900e-14 0 
    0.297852 2.006840e-02 6.786300e-14 0 
    0.299916 2.045184e-02 6.821100e-14 0 
    0.301995 2.060412e-02 6.777600e-14 0 
    0.304089 2.066245e-02 6.703500e-14 0 
    0.306196 2.100884e-02 6.722400e-14 0 
    0.308319 2.121436e-02 6.695000e-14 0 
    0.310456 2.142207e-02 6.667800e-14 0 
    0.311889 2.133105e-02 6.578600e-14 0 
    0.314051 2.163932e-02 6.582100e-14 0 
    0.316228 2.160136e-02 6.480400e-14 0 
    0.318420 2.186300e-02 6.468900e-14 0 
    0.320627 2.192554e-02 6.398400e-14 0 
    0.322107 2.148343e-02 6.211900e-14 0 
    0.324340 2.209756e-02 6.301800e-14 0 
    0.326588 2.175609e-02 6.119300e-14 0 
    0.328095 2.247727e-02 6.264200e-14 0 
    0.330370 2.290794e-02 6.296600e-14 0 
    0.332660 2.302669e-02 6.242400e-14 0 
    0.334195 2.308854e-02 6.201800e-14 0 
    0.335738 2.418558e-02 6.436900e-14 0 
    0.336512 2.435800e-02 6.453000e-14 0 
    0.337287 2.353557e-02 6.206500e-14 0 
    0.338065 2.364846e-02 6.207600e-14 0 
    0.338844 2.343609e-02 6.123600e-14 0 
    0.339625 2.382146e-02 6.195700e-14 0 
    0.340408 2.344513e-02 6.069800e-14 0 
    0.341193 2.307493e-02 5.946500e-14 0 
    0.341979 2.383512e-02 6.114200e-14 0 
    0.342768 2.456440e-02 6.272300e-14 0 
    0.343558 2.519946e-02 6.404900e-14 0 
    0.344350 2.395926e-02 6.061700e-14 0 
    0.345144 2.435339e-02 6.133100e-14 0 
    0.345939 2.562375e-02 6.423400e-14 0 
    0.346737 2.562870e-02 6.395100e-14 0 
    0.347536 2.569259e-02 6.381600e-14 0 
    0.348337 2.454115e-02 6.067600e-14 0 
    0.349140 2.448945e-02 6.027000e-14 0 
    0.349945 2.404736e-02 5.891000e-14 0 
    0.350752 2.501220e-02 6.099200e-14 0 
    0.351560 2.450383e-02 5.947800e-14 0 
    0.352371 2.434013e-02 5.880900e-14 0 
    0.353183 2.543371e-02 6.116900e-14 0 
    0.353997 2.514757e-02 6.020300e-14 0 
    0.354813 2.515244e-02 5.993800e-14 0 
    0.355631 2.556618e-02 6.064400e-14 0 
    0.356451 2.510483e-02 5.927600e-14 0 
    0.357273 2.623254e-02 6.165400e-14 0 
    0.358096 2.660274e-02 6.223700e-14 0 
    0.358922 2.697853e-02 6.282600e-14 0 
    0.359749 2.685969e-02 6.226200e-14 0 
    0.360579 2.595317e-02 5.988400e-14 0 
    0.361410 2.496225e-02 5.733300e-14 0 
    0.362243 2.479533e-02 5.668800e-14 0 
    0.363078 2.537775e-02 5.775300e-14 0 
    0.363915 2.682541e-02 6.076700e-14 0 
    0.364754 2.628047e-02 5.925900e-14 0 
    0.365595 2.677471e-02 6.009600e-14 0 
    0.366437 2.804222e-02 6.265200e-14 0 
    0.367282 2.722068e-02 6.053700e-14 0 
    0.368129 2.850958e-02 6.311200e-14 0 
    0.368761 2.705687e-02 5.969100e-14 1 
    0.369036 2.329806e-02 5.132200e-14 1 
    0.369311 2.752772e-02 6.054900e-14 1 
    0.369586 2.748359e-02 6.036200e-14 1 
    0.369861 2.789933e-02 6.118400e-14 1 
    0.370136 2.711928e-02 5.938500e-14 1 
    0.370411 2.562611e-02 5.603200e-14 1 
    0.370686 2.545531e-02 5.557600e-14 1 
    0.370961 2.684353e-02 5.852000e-14 1 
    0.371236 2.872273e-02 6.252400e-14 1 
    0.371511 2.883155e-02 6.266800e-14 1 
    0.371786 2.628069e-02 5.703900e-14 1 
    0.372061 2.654983e-02 5.753800e-14 1 
    0.372336 2.802072e-02 6.063600e-14 1 
    0.372611 2.682461e-02 5.796200e-14 1 
    0.372886 2.748992e-02 5.931200e-14 1 
    0.373161 2.781548e-02 5.992600e-14 1 
    0.373436 2.775841e-02 5.971500e-14 1 
    0.373711 2.713453e-02 5.828700e-14 1 
    0.373986 2.806449e-02 6.019600e-14 1 
    0.374261 2.675362e-02 5.730000e-14 1 
    0.374536 2.710343e-02 5.796400e-14 1 
    0.374811 3.189533e-02 6.811200e-14 1 
    0.375086 3.517191e-02 7.499900e-14 1 
    0.375361 4.513647e-02 9.610600e-14 1 
    0.375636 7.142133e-02 1.518500e-13 1 
    0.375911 1.147807e-01 2.436800e-13 1 
    0.376186 1.570308e-01 3.328900e-13 1 
    0.376461 1.592871e-01 3.371800e-13 1 
    0.376736 1.215394e-01 2.569000e-13 1 
    0.377011 7.160877e-02 1.511400e-13 1 
    0.377286 4.521153e-02 9.528600e-14 1 
    0.377561 3.557441e-02 7.486600e-14 1 
    0.377836 2.998675e-02 6.301500e-14 1 
    0.378111 2.976116e-02 6.245000e-14 1 
    0.378386 2.959829e-02 6.201800e-14 1 
    0.378661 2.772858e-02 5.801600e-14 1 
    0.378936 2.989309e-02 6.245400e-14 1 
    0.379211 3.128535e-02 6.526800e-14 1 
    0.379486 3.242377e-02 6.754500e-14 1 
    0.379761 3.056037e-02 6.357100e-14 1 
    0.380036 3.174706e-02 6.594400e-14 1 
    0.380311 3.221247e-02 6.681400e-14 1 
    0.380586 3.080627e-02 6.380500e-14 1 
    0.380861 3.040645e-02 6.288600e-14 1 
    0.381136 3.216450e-02 6.642600e-14 1 
    0.381411 3.586670e-02 7.396500e-14 1 
    0.381686 3.489428e-02 7.185600e-14 1 
    0.381961 3.426180e-02 7.045200e-14 1 
    0.382236 3.505482e-02 7.197900e-14 1 
    0.382511 3.337486e-02 6.843100e-14 1 
    0.382786 3.331298e-02 6.820600e-14 1 
    0.383061 3.156383e-02 6.453200e-14 1 
    0.383336 3.038315e-02 6.202900e-14 1 
    0.383611 3.125035e-02 6.370800e-14 1 
    0.383886 3.258464e-02 6.633300e-14 1 
    0.384161 3.444215e-02 7.001400e-14 1 
    0.384436 3.537773e-02 7.181300e-14 1 
    0.384711 3.613482e-02 7.324500e-14 1 
    0.384986 3.485604e-02 7.055200e-14 1 
    0.385261 3.562225e-02 7.200000e-14 1 
    0.385536 3.507362e-02 7.079000e-14 1 
    0.385811 3.405046e-02 6.862700e-14 1 
    0.386086 3.370252e-02 6.782900e-14 1 
    0.386361 3.459743e-02 6.953100e-14 1 
    0.386636 3.105401e-02 6.232100e-14 1 
    0.386911 2.922546e-02 5.856800e-14 1 
    0.387186 3.074216e-02 6.152000e-14 1 
    0.387461 3.346309e-02 6.687000e-14 1 
    0.387736 3.229587e-02 6.444600e-14 1 
    0.388011 3.385625e-02 6.746400e-14 1 
    0.388286 3.468372e-02 6.901500e-14 1 
    0.388561 3.746761e-02 7.444900e-14 1 
    0.388836 3.752420e-02 7.445600e-14 1 
    0.389111 3.732394e-02 7.395400e-14 1 
    0.389386 3.916686e-02 7.749600e-14 1 
    0.389661 3.960027e-02 7.824300e-14 1 
    0.389936 4.105302e-02 8.099900e-14 1 
    0.390211 4.181390e-02 8.238400e-14 1 
    0.390486 4.469881e-02 8.794400e-14 1 
    0.390761 4.241081e-02 8.332500e-14 1 
    0.391036 4.001174e-02 7.850100e-14 1 
    0.391311 3.846891e-02 7.536800e-14 1 
    0.391586 3.668088e-02 7.176400e-14 1 
    0.391861 3.629376e-02 7.090700e-14 1 
    0.392136 3.826327e-02 7.465000e-14 1 
    0.392411 3.917927e-02 7.633000e-14 1 
    0.392686 3.932673e-02 7.651000e-14 1 
    0.392961 3.737645e-02 7.261400e-14 1 
    0.393236 3.572213e-02 6.930300e-14 1 
    0.393511 3.611846e-02 6.997400e-14 1 
    0.393786 3.534607e-02 6.838200e-14 1 
    0.394061 3.699695e-02 7.147600e-14 1 
    0.394336 3.960400e-02 7.640600e-14 1 
    0.394611 4.008126e-02 7.721900e-14 1 
    0.394886 3.933043e-02 7.566700e-14 1 
    0.395161 3.864403e-02 7.424300e-14 1 
    0.395436 3.873693e-02 7.431800e-14 1 
    0.395711 3.855856e-02 7.387300e-14 1 
    0.395986 3.782239e-02 7.236200e-14 1 
    0.396261 3.553007e-02 6.788200e-14 1 
    0.396536 3.403163e-02 6.492900e-14 1 
    0.396811 3.404211e-02 6.485900e-14 1 
    0.397086 3.303077e-02 6.284500e-14 1 
    0.397361 3.238232e-02 6.152600e-14 1 
    0.397636 3.492958e-02 6.627400e-14 1 
    0.397911 3.739354e-02 7.085100e-14 1 
    0.398186 3.702350e-02 7.005300e-14 1 
    0.398461 3.820194e-02 7.218300e-14 1 
    0.398736 3.933688e-02 7.422500e-14 1 
    0.399011 3.913324e-02 7.373900e-14 1 
    0.399286 3.689832e-02 6.943200e-14 1 
    0.399561 3.702207e-02 6.956900e-14 1 
    0.399836 3.511253e-02 6.589000e-14 1 
    0.400111 3.466137e-02 6.495400e-14 1 
    0.400386 3.606310e-02 6.748800e-14 1 
    0.400661 3.653967e-02 6.828600e-14 1 
    0.400936 3.635086e-02 6.784000e-14 1 
    0.401211 3.535658e-02 6.589400e-14 1 
    0.401486 3.555283e-02 6.616900e-14 1 
    0.401761 3.809644e-02 7.080600e-14 1 
    0.402036 3.842123e-02 7.131200e-14 1 
    0.402311 3.911799e-02 7.250600e-14 1 
    0.402586 3.969337e-02 7.347200e-14 1 
    0.402861 4.066351e-02 7.516500e-14 1 
    0.403136 4.097799e-02 7.564300e-14 1 
    0.403411 4.044859e-02 7.456400e-14 1 
    0.403686 4.166296e-02 7.669800e-14 1 
    0.403961 4.246659e-02 7.807100e-14 1 
    0.404236 4.207669e-02 7.724900e-14 1 
    0.404511 4.311901e-02 7.905500e-14 1 
    0.404786 4.296083e-02 7.865800e-14 1 
    0.405061 4.286445e-02 7.837500e-14 1 
    0.405336 4.481701e-02 8.183400e-14 1 
    0.405611 4.443254e-02 8.102200e-14 1 
    0.405886 4.370369e-02 7.958500e-14 1 
    0.406161 4.510906e-02 8.203300e-14 1 
    0.406436 4.416251e-02 8.020300e-14 1 
    0.406711 4.171131e-02 7.564900e-14 1 
    0.406986 4.369576e-02 7.914100e-14 1 
    0.407261 4.361827e-02 7.889400e-14 1 
    0.407536 4.259044e-02 7.693100e-14 1 
    0.407811 4.343126e-02 7.834400e-14 1 
    0.408086 4.497755e-02 8.102400e-14 1 
    0.408361 4.424609e-02 7.959900e-14 1 
    0.408636 4.306167e-02 7.736400e-14 1 
    0.408911 4.294576e-02 7.705200e-14 1 
    0.409186 4.344110e-02 7.783600e-14 1 
    0.409461 4.456861e-02 7.974900e-14 1 
    0.409736 4.324681e-02 7.728000e-14 1 
    0.410011 4.498821e-02 8.028400e-14 1 
    0.410286 4.441284e-02 7.915100e-14 1 
    0.410561 4.638050e-02 8.254700e-14 1 
    0.410836 4.412578e-02 7.842900e-14 1 
    0.411111 4.478881e-02 7.950100e-14 1 
    0.411386 4.416277e-02 7.828500e-14 1 
    0.411661 4.350217e-02 7.701100e-14 1 
    0.411936 4.361292e-02 7.710400e-14 1 
    0.412211 4.406594e-02 7.780100e-14 1 
    0.412486 4.392739e-02 7.745300e-14 1 
    0.412761 4.246172e-02 7.476900e-14 1 
    0.413036 4.259964e-02 7.491200e-14 1 
    0.413311 4.336816e-02 7.616200e-14 1 
    0.413586 4.504918e-02 7.900900e-14 1 
    0.413861 4.797578e-02 8.403000e-14 1 
    0.414136 5.189107e-02 9.076700e-14 1 
    0.414411 4.994669e-02 8.725000e-14 1 
    0.414686 4.428085e-02 7.725000e-14 1 
    0.414961 4.185486e-02 7.292100e-14 1 
    0.415236 4.250923e-02 7.396300e-14 1 
    0.415511 4.089028e-02 7.105200e-14 1 
    0.415786 4.170105e-02 7.236500e-14 1 
    0.416061 4.348903e-02 7.536800e-14 1 
    0.416336 4.258857e-02 7.371000e-14 1 
    0.416611 4.308223e-02 7.446600e-14 1 
    0.416886 4.301863e-02 7.425800e-14 1 
    0.417161 4.242804e-02 7.314200e-14 1 
    0.417436 4.375488e-02 7.533000e-14 1 
    0.417711 4.495832e-02 7.730000e-14 1 
    0.417986 4.378348e-02 7.518100e-14 1 
    0.418261 4.279904e-02 7.339400e-14 1 
    0.418536 4.366405e-02 7.477900e-14 1 
    0.418811 4.292395e-02 7.341500e-14 1 
    0.419086 4.391998e-02 7.502000e-14 1 
    0.419361 4.440733e-02 7.575300e-14 1 
    0.419636 4.473031e-02 7.620400e-14 1 
    0.419911 4.722460e-02 8.034800e-14 1 
    0.420186 4.522960e-02 7.685300e-14 1 
    0.420461 4.641319e-02 7.876100e-14 1 
    0.420736 4.366109e-02 7.399400e-14 1 
    0.421011 4.404432e-02 7.454600e-14 1 
    0.421286 4.582464e-02 7.745800e-14 1 
    0.421561 4.336095e-02 7.319800e-14 1 
    0.421836 4.432388e-02 7.472600e-14 1 
    0.422111 4.381151e-02 7.376600e-14 1 
    0.422386 4.430870e-02 7.450600e-14 1 
    0.422661 4.560619e-02 7.658800e-14 1 
    0.422936 4.560653e-02 7.648900e-14 1 
    0.423211 4.436315e-02 7.430700e-14 1 
    0.423486 4.474961e-02 7.485700e-14 1 
    0.423761 4.337954e-02 7.247100e-14 1 
    0.424036 4.463277e-02 7.446800e-14 1 
    0.424311 4.397532e-02 7.327600e-14 1 
    0.424586 4.472159e-02 7.442300e-14 1 
    0.424861 4.419770e-02 7.345600e-14 1 
    0.425136 4.499839e-02 7.469000e-14 1 
    0.425411 4.605138e-02 7.633900e-14 1 
    0.425686 4.628308e-02 7.662400e-14 1 
    0.425961 4.470750e-02 7.392000e-14 1 
    0.426236 4.414088e-02 7.288900e-14 1 
    0.426511 4.491277e-02 7.406800e-14 1 
    0.426786 4.476791e-02 7.373400e-14 1 
    0.427061 4.418607e-02 7.268200e-14 1 
    0.427336 4.394047e-02 7.218500e-14 1 
    0.427611 4.440358e-02 7.285200e-14 1 
    0.427886 4.447535e-02 7.287600e-14 1 
    0.428161 4.548031e-02 7.442700e-14 1 
    0.428436 4.588874e-02 7.499900e-14 1 
    0.428711 4.557947e-02 7.439800e-14 1 
    0.428986 4.478468e-02 7.300700e-14 1 
    0.429261 4.485808e-02 7.303300e-14 1 
    0.429536 4.634731e-02 7.536100e-14 1 
    0.429811 4.663267e-02 7.572800e-14 1 
    0.430086 4.561581e-02 7.398200e-14 1 
    0.430361 4.562045e-02 7.389500e-14 1 
    0.430636 4.616032e-02 7.467400e-14 1 
    0.430911 4.513675e-02 7.292500e-14 1 
    0.431186 4.389789e-02 7.083300e-14 1 
    0.431461 4.573358e-02 7.370100e-14 1 
    0.431736 4.624235e-02 7.442600e-14 1 
    0.432011 4.464335e-02 7.176100e-14 1 
    0.432286 4.578469e-02 7.350200e-14 1 
    0.432561 4.560158e-02 7.311500e-14 1 
    0.432836 4.598682e-02 7.363900e-14 1 
    0.433111 4.609092e-02 7.371200e-14 1 
    0.433386 4.523414e-02 7.225000e-14 1 
    0.433661 4.293640e-02 6.849300e-14 1 
    0.433936 4.342836e-02 6.919000e-14 1 
    0.434211 4.301836e-02 6.845000e-14 1 
    0.434486 4.192698e-02 6.662900e-14 1 
    0.434761 4.180491e-02 6.635100e-14 1 
    0.435036 4.152094e-02 6.581700e-14 1 
    0.435311 4.400721e-02 6.967000e-14 1 
    0.435586 4.500391e-02 7.115800e-14 1 
    0.435861 4.623860e-02 7.301800e-14 1 
    0.436136 4.620249e-02 7.286900e-14 1 
    0.436411 4.577067e-02 7.209700e-14 1 
    0.436686 4.476366e-02 7.042200e-14 1 
    0.436961 4.511474e-02 7.088500e-14 1 
    0.437236 4.685070e-02 7.352000e-14 1 
    0.437511 5.106593e-02 8.003400e-14 1 
    0.437786 6.067975e-02 9.498200e-14 1 
    0.438061 7.172486e-02 1.121300e-13 1 
    0.438336 7.527343e-02 1.175300e-13 1 
    0.438611 6.745470e-02 1.051900e-13 1 
    0.438886 5.609635e-02 8.736800e-14 1 
    0.439161 4.843224e-02 7.533700e-14 1 
    0.439436 4.675498e-02 7.263700e-14 1 
    0.439711 4.745736e-02 7.363600e-14 1 
    0.439986 4.893122e-02 7.582800e-14 1 
    0.440261 4.935164e-02 7.638400e-14 1 
    0.440536 4.840607e-02 7.482700e-14 1 
    0.440811 4.923213e-02 7.600900e-14 1 
    0.441086 4.863013e-02 7.498600e-14 1 
    0.441361 4.808756e-02 7.405700e-14 1 
    0.441636 4.828338e-02 7.426600e-14 1 
    0.441911 4.746214e-02 7.291200e-14 1 
    0.442186 4.730876e-02 7.258600e-14 1 
    0.442461 4.582820e-02 7.022700e-14 1 
    0.442736 4.519064e-02 6.916400e-14 1 
    0.443011 4.533904e-02 6.930500e-14 1 
    0.443286 4.559119e-02 6.960400e-14 1 
    0.443561 4.643017e-02 7.079700e-14 1 
    0.443836 4.743857e-02 7.224500e-14 1 
    0.444111 4.768737e-02 7.253400e-14 1 
    0.444386 4.770695e-02 7.247400e-14 1 
    0.444661 4.759531e-02 7.221500e-14 1 
    0.444936 4.718106e-02 7.149800e-14 1 
    0.445211 4.791729e-02 7.252400e-14 1 
    0.445486 4.867177e-02 7.357500e-14 1 
    0.445761 4.875108e-02 7.360400e-14 1 
    0.446036 4.907851e-02 7.400700e-14 1 
    0.446311 4.846112e-02 7.298600e-14 1 
    0.446586 4.936449e-02 7.425500e-14 1 
    0.446861 4.954445e-02 7.443400e-14 1 
    0.447136 4.882639e-02 7.326500e-14 1 
    0.447411 4.873366e-02 7.303600e-14 1 
    0.447686 4.883567e-02 7.309900e-14 1 
    0.447961 5.050639e-02 7.550700e-14 1 
    0.448236 5.004269e-02 7.472200e-14 1 
    0.448511 5.004645e-02 7.463600e-14 1 
    0.448786 5.018370e-02 7.474900e-14 1 
    0.449061 5.011079e-02 7.454900e-14 1 
    0.449336 5.049186e-02 7.502400e-14 1 
    0.449611 5.028011e-02 7.461800e-14 1 
    0.449886 4.999823e-02 7.410900e-14 1 
    0.450161 5.031538e-02 7.448800e-14 1 
    0.450436 4.904387e-02 7.251700e-14 1 
    0.450711 4.839955e-02 7.147700e-14 1 
    0.450986 4.981388e-02 7.347600e-14 1 
    0.451261 5.190015e-02 7.646000e-14 1 
    0.451536 5.241333e-02 7.712200e-14 1 
    0.451811 5.160010e-02 7.583300e-14 1 
    0.452086 5.128960e-02 7.528500e-14 1 
    0.452361 5.186768e-02 7.604100e-14 1 
    0.452636 5.199496e-02 7.613500e-14 1 
    0.452911 5.145508e-02 7.525300e-14 1 
    0.453186 5.009980e-02 7.318200e-14 1 
    0.453461 5.109416e-02 7.454400e-14 1 
    0.453736 5.177584e-02 7.544700e-14 1 
    0.454011 5.144355e-02 7.487200e-14 1 
    0.454286 5.179344e-02 7.529000e-14 1 
    0.454561 5.247535e-02 7.618900e-14 1 
    0.454836 5.236164e-02 7.593200e-14 1 
    0.455111 5.389695e-02 7.806400e-14 1 
    0.455386 5.397386e-02 7.808100e-14 1 
    0.455661 5.290196e-02 7.643800e-14 1 
    0.455936 5.290832e-02 7.635500e-14 1 
    0.456211 5.186839e-02 7.476400e-14 1 
    0.456486 5.236576e-02 7.539000e-14 1 
    0.456761 5.242679e-02 7.538700e-14 1 
    0.457036 5.249968e-02 7.540100e-14 1 
    0.457311 5.216761e-02 7.483400e-14 1 
    0.457586 5.103828e-02 7.312600e-14 1 
    0.457861 5.125268e-02 7.334500e-14 1 
    0.458136 5.213422e-02 7.451700e-14 1 
    0.458411 5.214990e-02 7.445000e-14 1 
    0.458686 5.302320e-02 7.560600e-14 1 
    0.458961 5.166214e-02 7.357700e-14 1 
    0.459236 5.102669e-02 7.258500e-14 1 
    0.459511 5.093158e-02 7.236300e-14 1 
    0.459786 5.288743e-02 7.505200e-14 1 
    0.460061 5.262547e-02 7.459100e-14 1 
    0.460336 5.265026e-02 7.453700e-14 1 
    0.460611 5.453636e-02 7.711500e-14 1 
    0.460886 5.511130e-02 7.783500e-14 1 
    0.461161 5.316949e-02 7.500300e-14 1 
    0.461436 5.322298e-02 7.498900e-14 1 
    0.461711 5.432177e-02 7.644600e-14 1 
    0.461986 5.461416e-02 7.676600e-14 1 
    0.462261 5.355735e-02 7.519100e-14 1 
    0.462536 5.318822e-02 7.458400e-14 1 
    0.462811 5.229975e-02 7.325100e-14 1 
    0.463086 5.344131e-02 7.476100e-14 1 
    0.463361 5.402367e-02 7.548600e-14 1 
    0.463636 5.340998e-02 7.454000e-14 1 
    0.463911 5.357020e-02 7.467500e-14 1 
    0.464186 5.354036e-02 7.454500e-14 1 
    0.464461 5.328671e-02 7.410400e-14 1 
    0.464736 5.342686e-02 7.421100e-14 1 
    0.465011 5.341803e-02 7.411100e-14 1 
    0.465286 5.478378e-02 7.591600e-14 1 
    0.465561 5.498583e-02 7.610600e-14 1 
    0.465836 5.585155e-02 7.721300e-14 1 
    0.466111 5.450822e-02 7.526700e-14 1 
    0.466386 5.360607e-02 7.393400e-14 1 
    0.466661 5.513418e-02 7.595200e-14 1 
    0.466936 5.569629e-02 7.663600e-14 1 
    0.467211 5.592926e-02 7.686600e-14 1 
    0.467486 5.620493e-02 7.715400e-14 1 
    0.467761 5.595454e-02 7.672000e-14 1 
    0.468036 5.500100e-02 7.532400e-14 1 
    0.468311 5.502033e-02 7.526200e-14 1 
    0.468586 5.455214e-02 7.453400e-14 1 
    0.468861 5.392298e-02 7.358800e-14 1 
    0.469136 5.354535e-02 7.298700e-14 1 
    0.469411 5.319830e-02 7.242900e-14 1 
    0.469686 5.466076e-02 7.433300e-14 1 
    0.469961 5.503914e-02 7.476000e-14 1 
    0.470236 5.577357e-02 7.566900e-14 1 
    0.470511 5.691179e-02 7.712300e-14 1 
    0.470786 5.543720e-02 7.503700e-14 1 
    0.471061 5.388138e-02 7.284600e-14 1 
    0.471336 5.362367e-02 7.241300e-14 1 
    0.471611 5.437204e-02 7.333800e-14 1 
    0.471886 5.445774e-02 7.336800e-14 1 
    0.472161 5.368447e-02 7.224200e-14 1 
    0.472436 5.424252e-02 7.290800e-14 1 
    0.472711 5.581550e-02 7.493500e-14 1 
    0.472986 5.594534e-02 7.502200e-14 1 
    0.473261 5.675924e-02 7.602500e-14 1 
    0.473536 5.614354e-02 7.511300e-14 1 
    0.473811 5.595135e-02 7.476900e-14 1 
    0.474086 5.478914e-02 7.313100e-14 1 
    0.474361 5.516250e-02 7.354400e-14 1 
    0.474636 5.459870e-02 7.270800e-14 1 
    0.474911 5.472288e-02 7.278900e-14 1 
    0.475186 5.463724e-02 7.259100e-14 1 
    0.475461 5.481052e-02 7.273700e-14 1 
    0.475736 5.516213e-02 7.311900e-14 1 
    0.476011 5.543664e-02 7.339800e-14 1 
    0.476286 5.573286e-02 7.370500e-14 1 
    0.476561 5.651641e-02 7.465500e-14 1 
    0.476836 5.711599e-02 7.536000e-14 1 
    0.477111 5.698460e-02 7.510000e-14 1 
    0.477386 5.685736e-02 7.484600e-14 1 
    0.477661 5.679587e-02 7.467900e-14 1 
    0.477936 5.655140e-02 7.427200e-14 1 
    0.478211 5.644955e-02 7.405300e-14 1 
    0.478486 5.635423e-02 7.384300e-14 1 
    0.478761 5.683772e-02 7.439100e-14 1 
    0.479036 5.730309e-02 7.491400e-14 1 
    0.479311 5.792946e-02 7.564600e-14 1 
    0.479586 5.690727e-02 7.422600e-14 1 
    0.479861 5.772552e-02 7.520700e-14 1 
    0.480136 5.713931e-02 7.435800e-14 1 
    0.480411 5.622929e-02 7.309000e-14 1 
    0.480686 5.618970e-02 7.295500e-14 1 
    0.480961 5.600881e-02 7.263700e-14 1 
    0.481236 5.490645e-02 7.112600e-14 1 
    0.481511 5.736426e-02 7.422500e-14 1 
    0.481786 5.605566e-02 7.244900e-14 1 
    0.482061 5.752791e-02 7.426700e-14 1 
    0.482336 5.785103e-02 7.459900e-14 1 
    0.482611 5.885410e-02 7.580600e-14 1 
    0.482886 5.708141e-02 7.343900e-14 1 
    0.483161 5.718458e-02 7.348800e-14 1 
    0.483436 5.759870e-02 7.393600e-14 1 
    0.483711 5.701379e-02 7.310200e-14 1 
    0.483986 5.762130e-02 7.379700e-14 1 
    0.484261 5.849585e-02 7.483200e-14 1 
    0.484536 5.937149e-02 7.586600e-14 1 
    0.484811 5.807332e-02 7.412300e-14 1 
    0.485086 5.908751e-02 7.533200e-14 1 
    0.485361 5.741677e-02 7.311900e-14 1 
    0.485636 5.729396e-02 7.288000e-14 1 
    0.485911 5.835682e-02 7.414800e-14 1 
    0.486186 5.876327e-02 7.458000e-14 1 
    0.486461 5.905143e-02 7.486100e-14 1 
    0.486736 5.866492e-02 7.428700e-14 1 
    0.487011 5.835174e-02 7.380700e-14 1 
    0.487286 5.722171e-02 7.229600e-14 1 
    0.487561 5.899549e-02 7.445300e-14 1 
    0.487836 5.800859e-02 7.312500e-14 1 
    0.488111 5.880623e-02 7.404700e-14 1 
    0.488386 5.827701e-02 7.329800e-14 1 
    0.488661 5.865070e-02 7.368500e-14 1 
    0.488936 5.923310e-02 7.433300e-14 1 
    0.489211 5.606005e-02 7.027200e-14 1 
    0.489486 5.820918e-02 7.288400e-14 1 
    0.489761 5.871915e-02 7.344000e-14 1 
    0.490036 6.811917e-02 8.510100e-14 1 
    0.490311 9.352551e-02 1.167100e-13 1 
    0.490586 1.368877e-01 1.706300e-13 1 
    0.490861 1.665890e-01 2.074200e-13 1 
    0.491136 1.515792e-01 1.885200e-13 1 
    0.491411 1.123629e-01 1.395900e-13 1 
    0.491686 7.714970e-02 9.573700e-14 1 
    0.491961 6.058788e-02 7.510100e-14 1 
    0.492236 5.628784e-02 6.969300e-14 1 
    0.492511 5.476599e-02 6.773300e-14 1 
    0.492786 5.668163e-02 7.002400e-14 1 
    0.493061 5.639159e-02 6.958800e-14 1 
    0.493336 5.778175e-02 7.122400e-14 1 
    0.493611 5.509374e-02 6.783500e-14 1 
    0.493886 5.797001e-02 7.129700e-14 1 
    0.494161 5.789540e-02 7.112600e-14 1 
    0.494436 5.865740e-02 7.198200e-14 1 
    0.494711 5.835882e-02 7.153600e-14 1 
    0.494986 5.777853e-02 7.074600e-14 1 
    0.495261 5.801280e-02 7.095400e-14 1 
    0.495536 5.929357e-02 7.244000e-14 1 
    0.495811 5.659137e-02 6.906200e-14 1 
    0.496086 5.757458e-02 7.018400e-14 1 
    0.496361 5.823630e-02 7.091200e-14 1 
    0.496636 5.795883e-02 7.049600e-14 1 
    0.496911 5.616290e-02 6.823600e-14 1 
    0.497186 5.829491e-02 7.074800e-14 1 
    0.497461 5.920081e-02 7.176800e-14 1 
    0.497736 5.936207e-02 7.188400e-14 1 
    0.498011 5.955169e-02 7.203400e-14 1 
    0.498286 5.647993e-02 6.824300e-14 1 
    0.498561 5.769812e-02 6.963800e-14 1 
    0.498836 5.732051e-02 6.910600e-14 1 
    0.499111 5.730069e-02 6.900600e-14 1 
    0.499386 5.998075e-02 7.215400e-14 1 
    0.499661 6.361531e-02 7.644200e-14 1 
    0.499936 6.728360e-02 8.076100e-14 1 
    0.500211 7.747951e-02 9.289700e-14 1 
    0.500486 9.286359e-02 1.112200e-13 1 
    0.500761 1.028875e-01 1.230900e-13 1 
    0.501036 9.580411e-02 1.144900e-13 1 
    0.501311 8.153589e-02 9.733200e-14 1 
    0.501586 6.723870e-02 8.017700e-14 1 
    0.501861 6.107041e-02 7.274200e-14 1 
    0.502136 6.035068e-02 7.180600e-14 1 
    0.502411 6.091406e-02 7.239700e-14 1 
    0.502686 6.015867e-02 7.142100e-14 1 
    0.502961 5.958112e-02 7.065800e-14 1 
    0.503236 5.833364e-02 6.910300e-14 1 
    0.503511 6.012981e-02 7.115300e-14 1 
    0.503786 6.105759e-02 7.217200e-14 1 
    0.504061 6.153079e-02 7.265200e-14 1 
    0.504336 6.542005e-02 7.716000e-14 1 
    0.504611 7.165012e-02 8.441600e-14 1 
    0.504886 9.038254e-02 1.063700e-13 1 
    0.505161 1.338289e-01 1.573300e-13 1 
    0.505436 1.791239e-01 2.103500e-13 1 
    0.505711 1.909552e-01 2.240000e-13 1 
    0.505986 1.562757e-01 1.831200e-13 1 
    0.506261 1.051941e-01 1.231300e-13 1 
    0.506536 7.464901e-02 8.728200e-14 1 
    0.506811 6.430168e-02 7.510200e-14 1 
    0.507086 5.940360e-02 6.930600e-14 1 
    0.507361 5.898583e-02 6.874400e-14 1 
    0.507636 5.927656e-02 6.900800e-14 1 
    0.507911 5.953600e-02 6.923500e-14 1 
    0.508186 6.046649e-02 7.024100e-14 1 
    0.508461 5.976584e-02 6.935200e-14 1 
    0.508736 6.030672e-02 6.990400e-14 1 
    0.509011 5.920083e-02 6.854800e-14 1 
    0.509286 5.908845e-02 6.834400e-14 1 
    0.509561 5.842265e-02 6.750100e-14 1 
    0.509836 5.968489e-02 6.888500e-14 1 
    0.510111 5.990369e-02 6.906300e-14 1 
    0.510386 6.012980e-02 6.924900e-14 1 
    0.510661 6.104126e-02 7.022300e-14 1 
    0.510936 6.122188e-02 7.035500e-14 1 
    0.511211 6.075903e-02 6.974800e-14 1 
    0.511486 6.105290e-02 7.001000e-14 1 
    0.511761 6.104786e-02 6.992900e-14 1 
    0.512036 6.147442e-02 7.034200e-14 1 
    0.512311 5.952125e-02 6.803400e-14 1 
    0.512586 5.857273e-02 6.687800e-14 1 
    0.512861 5.848216e-02 6.670300e-14 1 
    0.513136 5.979211e-02 6.812400e-14 1 
    0.513411 5.928070e-02 6.746900e-14 1 
    0.513686 5.932751e-02 6.745000e-14 1 
    0.513961 5.959797e-02 6.768500e-14 1 
    0.514236 6.076359e-02 6.893500e-14 1 
    0.514511 6.107038e-02 6.920900e-14 1 
    0.514786 6.133090e-02 6.943000e-14 1 
    0.515061 6.040692e-02 6.831100e-14 1 
    0.515336 5.918431e-02 6.685700e-14 1 
    0.515611 6.083464e-02 6.864800e-14 1 
    0.515886 6.061744e-02 6.833000e-14 1 
    0.516161 6.073981e-02 6.839500e-14 1 
    0.516436 6.210874e-02 6.986200e-14 1 
    0.516711 6.214732e-02 6.983100e-14 1 
    0.516986 6.080584e-02 6.825100e-14 1 
    0.517261 6.032918e-02 6.764400e-14 1 
    0.517536 6.165489e-02 6.905700e-14 1 
    0.517811 5.924829e-02 6.629100e-14 1 
    0.518086 5.791012e-02 6.472500e-14 1 
    0.518361 6.116286e-02 6.828800e-14 1 
    0.518636 6.009983e-02 6.703000e-14 1 
    0.518911 6.004241e-02 6.689500e-14 1 
    0.519186 5.998836e-02 6.676400e-14 1 
    0.519461 5.888982e-02 6.547200e-14 1 
    0.519736 6.087098e-02 6.760300e-14 1 
    0.520011 5.958606e-02 6.610600e-14 1 
    0.520286 5.910409e-02 6.550200e-14 1 
    0.520561 5.957849e-02 6.595800e-14 1 
    0.520836 6.165699e-02 6.818700e-14 1 
    0.521111 6.062865e-02 6.697900e-14 1 
    0.521386 6.048333e-02 6.674800e-14 1 
    0.521661 5.878284e-02 6.480300e-14 1 
    0.521936 5.589637e-02 6.155600e-14 1 
    0.522211 5.607801e-02 6.169100e-14 1 
    0.522486 5.556380e-02 6.106100e-14 1 
    0.522761 5.807544e-02 6.375400e-14 1 
    0.523036 5.785570e-02 6.344600e-14 1 
    0.523311 5.759979e-02 6.309900e-14 1 
    0.523586 5.743189e-02 6.284900e-14 1 
    0.523861 5.803470e-02 6.344200e-14 1 
    0.524136 5.969084e-02 6.518400e-14 1 
    0.524411 6.220839e-02 6.786200e-14 1 
    0.524686 6.601217e-02 7.193600e-14 1 
    0.524961 6.965570e-02 7.582700e-14 1 
    0.525236 7.009193e-02 7.622200e-14 1 
    0.525511 6.655223e-02 7.229700e-14 1 
    0.525786 6.350538e-02 6.891500e-14 1 
    0.526061 6.053967e-02 6.562800e-14 1 
    0.526336 6.006832e-02 6.504900e-14 1 
    0.526611 6.190965e-02 6.697300e-14 1 
    0.526886 6.157179e-02 6.653800e-14 1 
    0.527161 6.095615e-02 6.580400e-14 1 
    0.527436 5.987919e-02 6.457400e-14 1 
    0.527711 5.968081e-02 6.429300e-14 1 
    0.527986 5.949121e-02 6.402200e-14 1 
    0.528261 6.108616e-02 6.567000e-14 1 
    0.528536 6.224762e-02 6.684900e-14 1 
    0.528811 6.108665e-02 6.553400e-14 1 
    0.529086 6.363974e-02 6.820200e-14 1 
    0.529361 6.446718e-02 6.901700e-14 1 
    0.529636 6.274918e-02 6.710800e-14 1 
    0.529911 6.299501e-02 6.730100e-14 1 
    0.530186 6.309695e-02 6.734000e-14 1 
    0.530461 6.284820e-02 6.700500e-14 1 
    0.530736 6.294060e-02 6.703400e-14 1 
    0.531011 6.417886e-02 6.828200e-14 1 
    0.531286 6.212648e-02 6.603000e-14 1 
    0.531561 6.162947e-02 6.543400e-14 1 
    0.531836 6.236832e-02 6.615000e-14 1 
    0.532111 6.258290e-02 6.630900e-14 1 
    0.532386 6.286018e-02 6.653400e-14 1 
    0.532661 6.534817e-02 6.909600e-14 1 
    0.532936 6.601305e-02 6.972700e-14 1 
    0.533211 6.598074e-02 6.962100e-14 1 
    0.533486 6.515989e-02 6.868400e-14 1 
    0.533761 6.584437e-02 6.933400e-14 1 
    0.534036 6.702164e-02 7.050100e-14 1 
    0.534311 6.805849e-02 7.151800e-14 1 
    0.534586 6.741983e-02 7.077400e-14 1 
    0.534861 6.681502e-02 7.006700e-14 1 
    0.535136 6.598263e-02 6.912300e-14 1 
    0.535411 6.524302e-02 6.827800e-14 1 
    0.535686 6.749287e-02 7.056000e-14 1 
    0.535961 6.782167e-02 7.083100e-14 1 
    0.536236 6.647941e-02 6.935800e-14 1 
    0.536511 6.828428e-02 7.116800e-14 1 
    0.536786 6.767045e-02 7.045600e-14 1 
    0.537061 6.651589e-02 6.918300e-14 1 
    0.537336 6.594881e-02 6.852300e-14 1 
    0.537611 6.625719e-02 6.877300e-14 1 
    0.537886 6.606364e-02 6.850200e-14 1 
    0.538161 6.461650e-02 6.693300e-14 1 
    0.538436 6.529331e-02 6.756500e-14 1 
    0.538711 6.626451e-02 6.850000e-14 1 
    0.538986 6.680474e-02 6.898800e-14 1 
    0.539261 6.699797e-02 6.911700e-14 1 
    0.539536 6.496459e-02 6.695100e-14 1 
    0.539811 6.633336e-02 6.829200e-14 1 
    0.540086 6.717686e-02 6.909000e-14 1 
    0.540361 6.616980e-02 6.798500e-14 1 
    0.540636 6.786326e-02 6.965400e-14 1 
    0.540911 6.927235e-02 7.102800e-14 1 
    0.541186 7.085896e-02 7.258100e-14 1 
    0.541461 6.839401e-02 6.998500e-14 1 
    0.541736 6.517752e-02 6.662600e-14 1 
    0.542011 6.721495e-02 6.863900e-14 1 
    0.542286 6.710085e-02 6.845300e-14 1 
    0.542561 6.745250e-02 6.874200e-14 1 
    0.542836 6.630096e-02 6.750000e-14 1 
    0.543111 6.860697e-02 6.977700e-14 1 
    0.543386 6.732216e-02 6.840100e-14 1 
    0.543661 6.899624e-02 7.003100e-14 1 
    0.543936 6.806997e-02 6.902100e-14 1 
    0.544211 6.741223e-02 6.828500e-14 1 
    0.544486 6.689831e-02 6.769600e-14 1 
    0.544761 6.538711e-02 6.610000e-14 1 
    0.545036 6.493627e-02 6.557800e-14 1 
    0.545311 6.506128e-02 6.563800e-14 1 
    0.545586 6.508028e-02 6.559100e-14 1 
    0.545861 6.568820e-02 6.613700e-14 1 
    0.546136 6.478603e-02 6.516300e-14 1 
    0.546411 6.582064e-02 6.613700e-14 1 
    0.546686 6.781857e-02 6.807600e-14 1 
    0.546961 6.862476e-02 6.881600e-14 1 
    0.547236 6.767160e-02 6.779200e-14 1 
    0.547511 6.858099e-02 6.863400e-14 1 
    0.547786 6.757465e-02 6.755900e-14 1 
    0.548061 6.788882e-02 6.780500e-14 1 
    0.548336 6.839494e-02 6.824200e-14 1 
    0.548611 6.855385e-02 6.833200e-14 1 
    0.548886 6.728593e-02 6.700100e-14 1 
    0.549161 7.139251e-02 7.101900e-14 1 
    0.549436 7.012368e-02 6.968700e-14 1 
    0.549711 6.963184e-02 6.912900e-14 1 
    0.549986 6.719292e-02 6.664100e-14 1 
    0.550261 6.934633e-02 6.870800e-14 1 
    0.550536 6.927422e-02 6.856800e-14 1 
    0.550811 6.697901e-02 6.623000e-14 1 
    0.551086 6.911002e-02 6.826900e-14 1 
    0.551361 6.783129e-02 6.693900e-14 1 
    0.551636 6.901170e-02 6.803600e-14 1 
    0.551911 6.806212e-02 6.703300e-14 1 
    0.552186 6.972057e-02 6.859800e-14 1 
    0.552461 6.985108e-02 6.865800e-14 1 
    0.552736 6.648765e-02 6.528700e-14 1 
    0.553011 6.699624e-02 6.572100e-14 1 
    0.553286 6.821494e-02 6.685000e-14 1 
    0.553561 6.939816e-02 6.794200e-14 1 
    0.553836 6.956325e-02 6.803600e-14 1 
    0.554111 6.975210e-02 6.815300e-14 1 
    0.554386 6.823545e-02 6.660500e-14 1 
    0.554661 6.886718e-02 6.715500e-14 1 
    0.554936 6.935431e-02 6.756300e-14 1 
    0.555211 6.929565e-02 6.743900e-14 1 
    0.555486 6.833474e-02 6.643800e-14 1 
    0.555761 7.011973e-02 6.810600e-14 1 
    0.556036 6.770234e-02 6.569300e-14 1 
    0.556311 6.786320e-02 6.578400e-14 1 
    0.556586 6.744703e-02 6.531600e-14 1 
    0.556861 6.898354e-02 6.673800e-14 1 
    0.557136 6.881683e-02 6.651100e-14 1 
    0.557411 6.990804e-02 6.749900e-14 1 
    0.557686 7.088727e-02 6.837700e-14 1 
    0.557961 6.857871e-02 6.608500e-14 1 
    0.558236 6.854557e-02 6.598800e-14 1 
    0.558511 6.917252e-02 6.652600e-14 1 
    0.558786 7.053958e-02 6.777400e-14 1 
    0.559061 7.053819e-02 6.770600e-14 1 
    0.559336 7.037295e-02 6.748100e-14 1 
    0.559611 7.045469e-02 6.749300e-14 1 
    0.559886 7.066502e-02 6.762800e-14 1 
    0.560161 7.151682e-02 6.837600e-14 1 
    0.560436 7.118920e-02 6.799600e-14 1 
    0.560711 7.201259e-02 6.871500e-14 1 
    0.560986 7.161328e-02 6.826700e-14 1 
    0.561261 7.334784e-02 6.985200e-14 1 
    0.561536 7.211640e-02 6.861200e-14 1 
    0.561811 7.251110e-02 6.892000e-14 1 
    0.562086 7.180384e-02 6.818100e-14 1 
    0.562361 7.073139e-02 6.709700e-14 1 
    0.562636 7.211537e-02 6.834300e-14 1 
    0.562911 7.207075e-02 6.823400e-14 1 
    0.563186 7.259686e-02 6.866500e-14 1 
    0.563461 7.220531e-02 6.822800e-14 1 
    0.563736 7.098130e-02 6.700600e-14 1 
    0.564011 7.039527e-02 6.638800e-14 1 
    0.564286 6.982072e-02 6.578200e-14 1 
    0.564561 6.852995e-02 6.450300e-14 1 
    0.564836 6.886684e-02 6.475700e-14 1 
    0.565111 7.038164e-02 6.611700e-14 1 
    0.565386 6.906070e-02 6.481300e-14 1 
    0.565661 6.884845e-02 6.455100e-14 1 
    0.565936 7.178622e-02 6.724000e-14 1 
    0.566211 7.201844e-02 6.739200e-14 1 
    0.566486 7.198786e-02 6.729800e-14 1 
    0.566761 7.148600e-02 6.676400e-14 1 
    0.567036 7.254356e-02 6.768600e-14 1 
    0.567311 7.139416e-02 6.654900e-14 1 
    0.567586 7.073639e-02 6.587200e-14 1 
    0.567861 7.254412e-02 6.749000e-14 1 
    0.568136 6.981699e-02 6.489000e-14 1 
    0.568411 7.034554e-02 6.531800e-14 1 
    0.568686 7.157464e-02 6.639500e-14 1 
    0.568961 7.177337e-02 6.651500e-14 1 
    0.569236 7.076483e-02 6.551700e-14 1 
    0.569511 7.353824e-02 6.801900e-14 1 
    0.569786 7.206391e-02 6.659100e-14 1 
    0.570061 7.165687e-02 6.615100e-14 1 
    0.570336 7.190384e-02 6.631500e-14 1 
    0.570611 7.188528e-02 6.623400e-14 1 
    0.570886 7.243694e-02 6.667800e-14 1 
    0.571161 7.240343e-02 6.658300e-14 1 
    0.571436 7.124212e-02 6.545200e-14 1 
    0.571711 7.035521e-02 6.457500e-14 1 
    0.571986 6.941305e-02 6.364900e-14 1 
    0.572261 7.155386e-02 6.554900e-14 1 
    0.572536 7.349219e-02 6.726000e-14 1 
    0.572811 7.413372e-02 6.778200e-14 1 
    0.573086 7.415456e-02 6.773600e-14 1 
    0.573361 7.417863e-02 6.769300e-14 1 
    0.573636 7.187839e-02 6.553100e-14 1 
    0.573911 7.412229e-02 6.751200e-14 1 
    0.574186 7.398453e-02 6.732200e-14 1 
    0.574461 7.535344e-02 6.850200e-14 1 
    0.574736 7.326639e-02 6.654100e-14 1 
    0.575011 7.355695e-02 6.674100e-14 1 
    0.575286 7.341663e-02 6.655000e-14 1 
    0.575561 7.395834e-02 6.697700e-14 1 
    0.575836 7.439488e-02 6.730800e-14 1 
    0.576111 7.258738e-02 6.561000e-14 1 
    0.576386 7.169989e-02 6.474600e-14 1 
    0.576661 7.263071e-02 6.552400e-14 1 
    0.576936 7.226174e-02 6.512900e-14 1 
    0.577211 7.300698e-02 6.573800e-14 1 
    0.577486 7.384248e-02 6.642700e-14 1 
    0.577761 7.364244e-02 6.618400e-14 1 
    0.578036 7.401327e-02 6.645400e-14 1 
    0.578311 7.650620e-02 6.862700e-14 1 
    0.578586 7.614714e-02 6.824000e-14 1 
    0.578861 7.616593e-02 6.819200e-14 1 
    0.579136 7.566366e-02 6.767800e-14 1 
    0.579411 7.531813e-02 6.730500e-14 1 
    0.579686 7.561143e-02 6.750300e-14 1 
    0.579961 7.538606e-02 6.723800e-14 1 
    0.580236 7.437910e-02 6.627700e-14 1 
    0.580511 7.355771e-02 6.548300e-14 1 
    0.580786 7.596499e-02 6.756200e-14 1 
    0.581061 7.785566e-02 6.917800e-14 1 
    0.581336 7.771984e-02 6.899200e-14 1 
    0.581611 7.719127e-02 6.845800e-14 1 
    0.581886 7.680831e-02 6.805400e-14 1 
    0.582161 7.646181e-02 6.768300e-14 1 
    0.582436 7.707796e-02 6.816400e-14 1 
    0.582711 7.568616e-02 6.687000e-14 1 
    0.582986 7.554803e-02 6.668500e-14 1 
    0.583261 7.603889e-02 6.705500e-14 1 
    0.583536 7.577804e-02 6.676200e-14 1 
    0.583811 7.331593e-02 6.453200e-14 1 
    0.584086 7.207271e-02 6.337800e-14 1 
    0.584361 7.386734e-02 6.489500e-14 1 
    0.584636 7.540319e-02 6.618200e-14 1 
    0.584911 7.622225e-02 6.683800e-14 1 
    0.585186 7.651652e-02 6.703300e-14 1 
    0.585461 7.528481e-02 6.589200e-14 1 
    0.585736 7.901285e-02 6.909000e-14 1 
    0.586011 7.867039e-02 6.872600e-14 1 
    0.586286 7.835697e-02 6.838800e-14 1 
    0.586561 7.709443e-02 6.722300e-14 1 
    0.586836 7.564688e-02 6.589900e-14 1 
    0.587111 7.828581e-02 6.813400e-14 1 
    0.587386 7.894685e-02 6.864500e-14 1 
    0.587661 7.993020e-02 6.943500e-14 1 
    0.587936 7.721663e-02 6.701500e-14 1 
    0.588211 7.922067e-02 6.869000e-14 1 
    0.588486 7.906505e-02 6.849100e-14 1 
    0.588761 7.958149e-02 6.887400e-14 1 
    0.589036 7.732195e-02 6.685600e-14 1 
    0.589311 8.125021e-02 7.018700e-14 1 
    0.589586 7.974790e-02 6.882500e-14 1 
    0.589861 7.804088e-02 6.728900e-14 1 
    0.590136 8.073955e-02 6.955100e-14 1 
    0.590411 7.809353e-02 6.720900e-14 1 
    0.590686 7.677647e-02 6.601400e-14 1 
    0.590961 7.771175e-02 6.675600e-14 1 
    0.591236 7.623671e-02 6.542800e-14 1 
    0.591511 7.651524e-02 6.560600e-14 1 
    0.591786 7.626304e-02 6.532900e-14 1 
    0.592061 7.351562e-02 6.291700e-14 1 
    0.592336 7.717092e-02 6.598400e-14 1 
    0.592611 8.013754e-02 6.845700e-14 1 
    0.592886 9.103973e-02 7.769800e-14 1 
    0.593161 9.702925e-02 8.273300e-14 1 
    0.593436 9.935080e-02 8.463400e-14 1 
    0.593711 9.468661e-02 8.058600e-14 1 
    0.593986 8.363583e-02 7.111500e-14 1 
    0.594261 7.605473e-02 6.460900e-14 1 
    0.594536 7.089491e-02 6.017000e-14 1 
    0.594811 7.081545e-02 6.004700e-14 1 
    0.595086 6.972767e-02 5.907000e-14 1 
    0.595361 6.976141e-02 5.904400e-14 1 
    0.595636 7.126392e-02 6.026000e-14 1 
    0.595911 7.187662e-02 6.072200e-14 1 
    0.596186 7.649257e-02 6.456200e-14 1 
    0.596461 7.638883e-02 6.441500e-14 1 
    0.596736 7.909793e-02 6.663800e-14 1 
    0.597011 7.860771e-02 6.616400e-14 1 
    0.597286 7.767649e-02 6.532000e-14 1 
    0.597561 7.757425e-02 6.517400e-14 1 
    0.597836 7.443972e-02 6.248300e-14 1 
    0.598111 7.746790e-02 6.496500e-14 1 
    0.598386 7.762628e-02 6.503800e-14 1 
    0.598661 7.672280e-02 6.422200e-14 1 
    0.598936 7.501284e-02 6.273300e-14 1 
    0.599211 7.856576e-02 6.564400e-14 1 
    0.599486 7.690686e-02 6.419900e-14 1 
    0.599761 7.792109e-02 6.498600e-14 1 
    0.600036 7.480137e-02 6.232700e-14 1 
    0.600311 7.726643e-02 6.432200e-14 1 
    0.600586 7.645351e-02 6.358700e-14 1 
    0.600861 7.879806e-02 6.547700e-14 1 
    0.601136 7.831972e-02 6.502000e-14 1 
    0.601411 7.929323e-02 6.576800e-14 1 
    0.601686 7.789835e-02 6.455200e-14 1 
    0.601961 7.702985e-02 6.377400e-14 1 
    0.602236 7.778815e-02 6.434300e-14 1 
    0.602511 7.751919e-02 6.406200e-14 1 
    0.602786 7.817858e-02 6.454800e-14 1 
    0.603061 7.554778e-02 6.231900e-14 1 
    0.603336 7.798400e-02 6.427000e-14 1 
    0.603611 7.871700e-02 6.481500e-14 1 
    0.603886 7.912304e-02 6.509000e-14 1 
    0.604161 7.906736e-02 6.498500e-14 1 
    0.604436 7.746365e-02 6.360900e-14 1 
    0.604711 7.894444e-02 6.476600e-14 1 
    0.604986 7.657865e-02 6.276800e-14 1 
    0.605261 7.790482e-02 6.379700e-14 1 
    0.605536 8.012801e-02 6.555800e-14 1 
    0.605811 7.677174e-02 6.275500e-14 1 
    0.606086 7.964303e-02 6.504300e-14 1 
    0.606361 7.783038e-02 6.350500e-14 1 
    0.606636 7.516057e-02 6.127100e-14 1 
    0.606911 7.766223e-02 6.325300e-14 1 
    0.607186 7.928966e-02 6.452000e-14 1 
    0.607461 7.665667e-02 6.232100e-14 1 
    0.607736 8.047492e-02 6.536600e-14 1 
    0.608011 7.787254e-02 6.319500e-14 1 
    0.608286 7.688107e-02 6.233400e-14 1 
    0.608561 7.727402e-02 6.259600e-14 1 
    0.608836 7.835954e-02 6.341800e-14 1 
    0.609111 7.918104e-02 6.402500e-14 1 
    0.609386 8.072805e-02 6.521700e-14 1 
    0.609661 7.993986e-02 6.452200e-14 1 
    0.609936 8.068039e-02 6.506100e-14 1 
    0.610211 7.976765e-02 6.426700e-14 1 
    0.610486 7.960601e-02 6.407900e-14 1 
    0.610761 8.147451e-02 6.552400e-14 1 
    0.611036 8.080987e-02 6.493100e-14 1 
    0.611311 8.228026e-02 6.605300e-14 1 
    0.611586 7.964503e-02 6.388000e-14 1 
    0.611861 7.835895e-02 6.279200e-14 1 
    0.612136 8.082879e-02 6.471300e-14 1 
    0.612411 8.007133e-02 6.404900e-14 1 
    0.612686 7.967903e-02 6.367800e-14 1 
    0.612961 7.959778e-02 6.355600e-14 1 
    0.613236 8.225274e-02 6.561700e-14 1 
    0.613511 8.063526e-02 6.426900e-14 1 
    0.613786 8.305336e-02 6.613700e-14 1 
    0.614061 8.048829e-02 6.403700e-14 1 
    0.614336 8.109255e-02 6.446000e-14 1 
    0.614611 8.204406e-02 6.515800e-14 1 
    0.614886 8.231661e-02 6.531600e-14 1 
    0.615161 8.115282e-02 6.433500e-14 1 
    0.615436 8.090597e-02 6.408200e-14 1 
    0.615711 8.112361e-02 6.419700e-14 1 
    0.615986 8.147309e-02 6.441600e-14 1 
    0.616261 7.863168e-02 6.211400e-14 1 
    0.616536 7.931640e-02 6.259900e-14 1 
    0.616811 8.122985e-02 6.405200e-14 1 
    0.617086 8.094054e-02 6.376700e-14 1 
    0.617361 8.109273e-02 6.383000e-14 1 
    0.617636 8.024819e-02 6.310900e-14 1 
    0.617911 7.980421e-02 6.270400e-14 1 
    0.618186 7.909949e-02 6.209500e-14 1 
    0.618461 8.015544e-02 6.286800e-14 1 
    0.618736 7.966525e-02 6.242800e-14 1 
    0.619011 7.925073e-02 6.204800e-14 1 
    0.619286 8.106744e-02 6.341400e-14 1 
    0.619561 8.115352e-02 6.342500e-14 1 
    0.619836 7.879617e-02 6.152800e-14 1 
    0.620111 7.995691e-02 6.237900e-14 1 
    0.620386 8.025621e-02 6.255700e-14 1 
    0.620661 8.097710e-02 6.306300e-14 1 
    0.620936 8.238292e-02 6.410100e-14 1 
    0.621211 8.164938e-02 6.347400e-14 1 
    0.621486 8.100069e-02 6.291400e-14 1 
    0.621761 7.918584e-02 6.145000e-14 1 
    0.622036 7.764241e-02 6.019900e-14 1 
    0.622311 7.604194e-02 5.890600e-14 1 
    0.622586 7.439979e-02 5.758300e-14 1 
    0.622861 7.608331e-02 5.883400e-14 1 
    0.623136 7.703195e-02 5.951500e-14 1 
    0.623411 7.818685e-02 6.035400e-14 1 
    0.623686 8.052751e-02 6.210600e-14 1 
    0.623961 8.003791e-02 6.167400e-14 1 
    0.624236 8.130217e-02 6.259300e-14 1 
    0.624511 8.069129e-02 6.206800e-14 1 
    0.624786 7.968239e-02 6.123800e-14 1 
    0.625061 7.900631e-02 6.066500e-14 1 
    0.625336 7.787012e-02 5.974000e-14 1 
    0.625611 7.934501e-02 6.081800e-14 1 
    0.625886 8.092818e-02 6.197700e-14 1 
    0.626161 7.978648e-02 6.104900e-14 1 
    0.626436 8.004494e-02 6.119300e-14 1 
    0.626711 8.031685e-02 6.134700e-14 1 
    0.626986 8.106744e-02 6.186600e-14 1 
    0.627261 8.283436e-02 6.315900e-14 1 
    0.627536 7.903857e-02 6.021200e-14 1 
    0.627811 7.971222e-02 6.067200e-14 1 
    0.628086 8.108915e-02 6.166600e-14 1 
    0.628361 7.938077e-02 6.031400e-14 1 
    0.628636 8.097567e-02 6.147200e-14 1 
    0.628911 7.759093e-02 5.885100e-14 1 
    0.629186 8.151330e-02 6.177200e-14 1 
    0.629461 7.891272e-02 5.974900e-14 1 
    0.629736 7.971004e-02 6.030000e-14 1 
    0.630011 8.217439e-02 6.211000e-14 1 
    0.630286 8.123711e-02 6.134800e-14 1 
    0.630561 7.933720e-02 5.986100e-14 1 
    0.630836 7.869939e-02 5.932800e-14 1 
    0.631111 8.067323e-02 6.076300e-14 1 
    0.631386 7.945326e-02 5.979200e-14 1 
    0.631661 8.088705e-02 6.081800e-14 1 
    0.631936 8.148329e-02 6.121300e-14 1 
    0.632211 8.047107e-02 6.040000e-14 1 
    0.632486 8.025439e-02 6.018500e-14 1 
    0.632761 8.222870e-02 6.161200e-14 1 
    0.633036 7.866018e-02 5.888700e-14 1 
    0.633311 7.923657e-02 5.926700e-14 1 
    0.633586 8.244995e-02 6.161700e-14 1 
    0.633861 8.047514e-02 6.008900e-14 1 
    0.634136 8.076482e-02 6.025300e-14 1 
    0.634411 7.945438e-02 5.922400e-14 1 
    0.634686 7.836179e-02 5.835900e-14 1 
    0.634961 8.326783e-02 6.195900e-14 1 
    0.635236 8.873241e-02 6.596800e-14 1 
    0.635511 9.422116e-02 6.998800e-14 1 
    0.635786 1.010021e-01 7.496000e-14 1 
    0.636061 1.202258e-01 8.915000e-14 1 
    0.636336 1.245572e-01 9.228200e-14 1 
    0.636611 1.175982e-01 8.705100e-14 1 
    0.636886 1.054743e-01 7.800900e-14 1 
    0.637161 9.367176e-02 6.922000e-14 1 
    0.637436 8.735438e-02 6.449600e-14 1 
    0.637711 8.464540e-02 6.244200e-14 1 
    0.637986 8.195064e-02 6.040200e-14 1 
    0.638261 8.250608e-02 6.075900e-14 1 
    0.638536 8.329888e-02 6.129000e-14 1 
    0.638811 8.488869e-02 6.240600e-14 1 
    0.639086 8.725309e-02 6.408900e-14 1 
    0.639361 8.429503e-02 6.186300e-14 1 
    0.639636 8.398571e-02 6.158300e-14 1 
    0.639911 8.467080e-02 6.203200e-14 1 
    0.640186 8.551272e-02 6.259500e-14 1 
    0.640461 8.608527e-02 6.296000e-14 1 
    0.640736 8.757831e-02 6.399700e-14 1 
    0.641011 8.496214e-02 6.203200e-14 1 
    0.641286 8.323791e-02 6.072100e-14 1 
    0.641561 8.550451e-02 6.232100e-14 1 
    0.641836 8.802209e-02 6.410100e-14 1 
    0.642111 9.137262e-02 6.648400e-14 1 
    0.642386 9.488286e-02 6.897900e-14 1 
    0.642661 9.818561e-02 7.131900e-14 1 
    0.642936 9.803542e-02 7.114900e-14 1 
    0.643211 9.556941e-02 6.930000e-14 1 
    0.643486 9.170916e-02 6.644400e-14 1 
    0.643761 8.782563e-02 6.357600e-14 1 
    0.644036 8.884776e-02 6.426100e-14 1 
    0.644311 8.742501e-02 6.317800e-14 1 
    0.644586 8.753843e-02 6.320600e-14 1 
    0.644861 8.896881e-02 6.418400e-14 1 
    0.645136 8.647257e-02 6.233000e-14 1 
    0.645411 8.655048e-02 6.233300e-14 1 
    0.645686 8.585297e-02 6.177800e-14 1 
    0.645961 8.717652e-02 6.267700e-14 1 
    0.646236 8.728278e-02 6.270000e-14 1 
    0.646511 8.760229e-02 6.287600e-14 1 
    0.646786 8.577622e-02 6.151300e-14 1 
    0.647061 8.743599e-02 6.265000e-14 1 
    0.647336 8.767655e-02 6.276900e-14 1 
    0.647611 8.679483e-02 6.208500e-14 1 
    0.647886 8.685036e-02 6.207200e-14 1 
    0.648161 8.623933e-02 6.158300e-14 1 
    0.648436 8.647791e-02 6.170100e-14 1 
    0.648711 8.444013e-02 6.019600e-14 1 
    0.648986 8.767060e-02 6.244600e-14 1 
    0.649261 8.752573e-02 6.229000e-14 1 
    0.649536 8.751972e-02 6.223300e-14 1 
    0.649811 8.772474e-02 6.232600e-14 1 
    0.650086 8.638325e-02 6.132100e-14 1 
    0.650361 8.511555e-02 6.037000e-14 1 
    0.650636 8.651679e-02 6.131200e-14 1 
    0.650911 8.589792e-02 6.082200e-14 1 
    0.651186 8.735431e-02 6.180100e-14 1 
    0.651461 8.559894e-02 6.050800e-14 1 
    0.651736 8.525495e-02 6.021400e-14 1 
    0.652011 8.815537e-02 6.221000e-14 1 
    0.652286 8.740857e-02 6.163100e-14 1 
    0.652561 8.742552e-02 6.159100e-14 1 
    0.652836 8.738841e-02 6.151300e-14 1 
    0.653111 8.541174e-02 6.007100e-14 1 
    0.653386 8.816754e-02 6.195700e-14 1 
    0.653661 8.685456e-02 6.098300e-14 1 
    0.653936 8.993392e-02 6.309200e-14 1 
    0.654211 8.901235e-02 6.239300e-14 1 
    0.654486 8.559471e-02 5.994700e-14 1 
    0.654761 8.692421e-02 6.082700e-14 1 
    0.655036 8.350459e-02 5.838500e-14 1 
    0.655311 8.439207e-02 5.895600e-14 1 
    0.655586 8.641704e-02 6.032000e-14 1 
    0.655861 8.443342e-02 5.888600e-14 1 
    0.656136 8.709738e-02 6.069300e-14 1 
    0.656411 8.374350e-02 5.830700e-14 1 
    0.656686 8.520082e-02 5.927200e-14 1 
    0.656961 8.648787e-02 6.011700e-14 1 
    0.657236 8.829100e-02 6.131900e-14 1 
    0.657511 9.036944e-02 6.271000e-14 1 
    0.657786 9.100898e-02 6.310100e-14 1 
    0.658061 9.070834e-02 6.284000e-14 1 
    0.658336 9.202515e-02 6.369900e-14 1 
    0.658611 9.055495e-02 6.262900e-14 1 
    0.658886 9.322089e-02 6.441900e-14 1 
    0.659161 9.079459e-02 6.269000e-14 1 
    0.659436 9.551463e-02 6.589400e-14 1 
    0.659711 9.510832e-02 6.555900e-14 1 
    0.659986 9.733795e-02 6.704000e-14 1 
    0.660261 1.041457e-01 7.166900e-14 1 
    0.660536 1.176533e-01 8.089700e-14 1 
    0.660811 1.547854e-01 1.063400e-13 1 
    0.661086 1.923681e-01 1.320500e-13 1 
    0.661361 2.129401e-01 1.460500e-13 1 
    0.661636 2.179472e-01 1.493600e-13 1 
    0.661911 2.722078e-01 1.863900e-13 1 
    0.662186 4.628557e-01 3.166700e-13 1 
    0.662461 7.565852e-01 5.172000e-13 1 
    0.662736 9.531930e-01 6.510600e-13 1 
    0.663011 8.780242e-01 5.992200e-13 1 
    0.663286 6.039610e-01 4.118400e-13 1 
    0.663561 3.457046e-01 2.355400e-13 1 
    0.663836 2.159764e-01 1.470300e-13 1 
    0.664111 2.118331e-01 1.440900e-13 1 
    0.664386 2.876661e-01 1.955100e-13 1 
    0.664661 3.879514e-01 2.634500e-13 1 
    0.664936 4.192075e-01 2.844400e-13 1 
    0.665211 3.500515e-01 2.373200e-13 1 
    0.665486 2.421622e-01 1.640400e-13 1 
    0.665761 1.545718e-01 1.046200e-13 1 
    0.666036 1.127065e-01 7.622100e-14 1 
    0.666311 1.007413e-01 6.807300e-14 1 
    0.666586 9.755860e-02 6.586800e-14 1 
    0.666861 9.369460e-02 6.320700e-14 1 
    0.667136 9.237585e-02 6.226600e-14 1 
    0.667411 9.251290e-02 6.230700e-14 1 
    0.667686 9.267089e-02 6.236200e-14 1 
    0.667961 9.241261e-02 6.213700e-14 1 
    0.668236 9.078293e-02 6.099100e-14 1 
    0.668511 9.052547e-02 6.076800e-14 1 
    0.668786 9.304506e-02 6.240800e-14 1 
    0.669061 9.128030e-02 6.117400e-14 1 
    0.669336 9.138671e-02 6.119500e-14 1 
    0.669611 9.278453e-02 6.208000e-14 1 
    0.669886 8.893721e-02 5.945700e-14 1 
    0.670161 8.987705e-02 6.003600e-14 1 
    0.670436 9.441420e-02 6.301500e-14 1 
    0.670711 9.157363e-02 6.106900e-14 1 
    0.670986 9.323651e-02 6.212700e-14 1 
    0.671261 9.295399e-02 6.188800e-14 1 
    0.671536 8.981933e-02 5.975200e-14 1 
    0.671811 9.034423e-02 6.005200e-14 1 
    0.672086 9.117706e-02 6.055600e-14 1 
    0.672361 9.241501e-02 6.132800e-14 1 
    0.672636 9.225536e-02 6.117200e-14 1 
    0.672911 9.211347e-02 6.102800e-14 1 
    0.673186 9.367822e-02 6.201400e-14 1 
    0.673461 9.443057e-02 6.246100e-14 1 
    0.673736 9.520824e-02 6.292400e-14 1 
    0.674011 1.000788e-01 6.608900e-14 1 
    0.674286 1.020533e-01 6.733800e-14 1 
    0.674561 9.895744e-02 6.524200e-14 1 
    0.674836 9.573039e-02 6.306300e-14 1 
    0.675111 9.094075e-02 5.985900e-14 1 
    0.675386 9.378215e-02 6.167900e-14 1 
    0.675661 9.206594e-02 6.050100e-14 1 
    0.675936 8.944221e-02 5.872900e-14 1 
    0.676211 9.279814e-02 6.088300e-14 1 
    0.676486 9.594434e-02 6.289600e-14 1 
    0.676761 9.475522e-02 6.206600e-14 1 
    0.677036 9.930448e-02 6.499300e-14 1 
    0.677311 1.056211e-01 6.907100e-14 1 
    0.677586 1.346025e-01 8.795200e-14 1 
    0.677861 1.898789e-01 1.239700e-13 1 
    0.678136 2.459836e-01 1.604700e-13 1 
    0.678411 2.635803e-01 1.718100e-13 1 
    0.678686 2.337619e-01 1.522500e-13 1 
    0.678961 1.891126e-01 1.230700e-13 1 
    0.679236 1.835142e-01 1.193300e-13 1 
    0.679511 2.064726e-01 1.341500e-13 1 
    0.679786 2.244309e-01 1.457000e-13 1 
    0.680061 2.025675e-01 1.314000e-13 1 
    0.680336 1.574794e-01 1.020700e-13 1 
    0.680611 1.204942e-01 7.803500e-14 1 
    0.680886 1.009131e-01 6.530100e-14 1 
    0.681161 9.308682e-02 6.018800e-14 1 
    0.681436 9.433217e-02 6.094400e-14 1 
    0.681711 9.198862e-02 5.938200e-14 1 
    0.681986 9.153420e-02 5.904100e-14 1 
    0.682261 9.263983e-02 5.970600e-14 1 
    0.682536 9.439627e-02 6.078900e-14 1 
    0.682811 9.153355e-02 5.889800e-14 1 
    0.683912 9.482092e-02 6.081700e-14 0 
    0.685488 9.636269e-02 6.152200e-14 0 
    0.687068 9.395302e-02 5.970800e-14 0 
    0.688652 9.570195e-02 6.054000e-14 0 
    0.690240 9.748260e-02 6.138300e-14 0 
    0.691831 9.395669e-02 5.889100e-14 0 
    0.693426 9.482797e-02 5.916400e-14 0 
    0.695024 9.439283e-02 5.862200e-14 0 
    0.696626 9.504846e-02 5.875800e-14 0 
    0.698233 9.570850e-02 5.889400e-14 0 
    0.699842 9.637214e-02 5.903000e-14 0 
    0.701455 9.953130e-02 6.068500e-14 0 
    0.703072 9.930364e-02 6.026800e-14 0 
    0.704693 1.027946e-01 6.210000e-14 0 
    0.706318 1.027969e-01 6.181600e-14 0 
    0.707946 9.999527e-02 5.985500e-14 0 
    0.709578 9.839751e-02 5.862800e-14 0 
    0.711214 1.039909e-01 6.167600e-14 0 
    0.712853 1.076451e-01 6.355000e-14 0 
    0.714496 9.840144e-02 5.782600e-14 0 
    0.716143 1.039945e-01 6.083200e-14 0 
    0.717794 9.908697e-02 5.769500e-14 0 
    0.719449 9.931668e-02 5.756300e-14 0 
    0.721108 9.594633e-02 5.535400e-14 0 
    0.722770 9.908991e-02 5.690500e-14 0 
    0.724436 9.954898e-02 5.690600e-14 0 
    0.726106 9.841098e-02 5.599700e-14 0 
    0.727780 9.886526e-02 5.599700e-14 0 
    0.729457 1.032892e-01 5.823400e-14 0 
    0.731139 1.040066e-01 5.836900e-14 0 
    0.732825 1.030530e-01 5.756800e-14 0 
    0.734514 1.030556e-01 5.730500e-14 0 
    0.736207 1.054571e-01 5.837100e-14 0 
    0.737904 1.094159e-01 6.028400e-14 0 
    0.739605 1.084130e-01 5.945700e-14 0 
    0.741310 1.109412e-01 6.056400e-14 0 
    0.743019 1.124857e-01 6.112500e-14 0 
    0.744732 1.096735e-01 5.932300e-14 0 
    0.746449 1.153747e-01 6.212000e-14 0 
    0.748170 1.159073e-01 6.212000e-14 0 
    0.749894 1.119733e-01 5.973600e-14 0 
    0.751623 1.145843e-01 6.084800e-14 0 
    0.753356 1.167157e-01 6.169500e-14 0 
    0.755092 1.188868e-01 6.255400e-14 0 
    0.756833 1.169879e-01 6.127200e-14 0 
    0.758578 1.197147e-01 6.241200e-14 0 
    0.760326 1.222229e-01 6.342700e-14 0 
    0.762079 1.227891e-01 6.342800e-14 0 
    0.763836 1.211058e-01 6.227100e-14 0 
    0.765597 1.202737e-01 6.155900e-14 0 
    0.767361 1.202751e-01 6.127700e-14 0 
    0.769130 1.180815e-01 5.988300e-14 0 
    0.770904 1.200016e-01 6.057700e-14 0 
    0.772681 1.191763e-01 5.988400e-14 0 
    0.774462 1.164655e-01 5.825300e-14 0 
    0.776247 1.154002e-01 5.745500e-14 0 
    0.778037 1.170065e-01 5.798700e-14 0 
    0.779830 1.170092e-01 5.772200e-14 0 
    0.781628 1.172806e-01 5.759000e-14 0 
    0.783430 1.162057e-01 5.680000e-14 0 
    0.785236 1.191879e-01 5.799000e-14 0 
    0.787046 1.180965e-01 5.719500e-14 0 
    0.788860 1.186436e-01 5.719600e-14 0 
    0.790679 1.239510e-01 5.948000e-14 0 
    0.792501 1.194692e-01 5.706600e-14 0 
    0.794328 1.231018e-01 5.853100e-14 0 
    0.796159 1.236721e-01 5.853200e-14 0 
    0.797995 1.259731e-01 5.934700e-14 0 
    0.799834 1.228226e-01 5.759700e-14 0 
    0.801678 1.222606e-01 5.707000e-14 0 
    0.803526 1.178405e-01 5.475400e-14 0 
    0.805378 1.231107e-01 5.694000e-14 0 
    0.807235 1.245392e-01 5.733600e-14 0 
    0.809096 1.228316e-01 5.629000e-14 0 
    0.810961 1.295147e-01 5.908000e-14 0 
    0.812831 1.316213e-01 5.976500e-14 0 
    0.814704 1.310184e-01 5.921800e-14 0 
    0.816582 1.274489e-01 5.734000e-14 0 
    0.818465 1.245495e-01 5.577800e-14 0 
    0.820352 1.313248e-01 5.854200e-14 0 
    0.822243 1.322374e-01 5.867800e-14 0 
    0.824138 1.283400e-01 5.668700e-14 0 
    0.826038 1.301266e-01 5.721200e-14 0 
    0.827942 1.274596e-01 5.578200e-14 0 
    0.829851 1.334678e-01 5.814300e-14 0 
    0.831764 1.313373e-01 5.695200e-14 0 
    0.833681 1.343968e-01 5.801100e-14 0 
    0.835603 1.394440e-01 5.991300e-14 0 
    0.837529 1.340925e-01 5.734900e-14 0 
    0.839460 1.350239e-01 5.748200e-14 0 
    0.841395 1.356495e-01 5.748300e-14 0 
    0.843335 1.334830e-01 5.630500e-14 0 
    0.845279 1.375406e-01 5.775000e-14 0 
    0.847227 1.344116e-01 5.617700e-14 0 
    0.849180 1.378612e-01 5.735400e-14 0 
    0.851138 1.372299e-01 5.682900e-14 0 
    0.853100 1.301537e-01 5.365100e-14 0 
    0.855067 1.385046e-01 5.683100e-14 0 
    0.857038 1.388256e-01 5.670100e-14 0 
    0.859014 1.401109e-01 5.696300e-14 0 
    0.860994 1.372413e-01 5.554000e-14 0 
    0.862979 1.388306e-01 5.592500e-14 0 
    0.864968 1.366133e-01 5.477900e-14 0 
    0.866962 1.427257e-01 5.696700e-14 0 
    0.868960 1.398001e-01 5.554300e-14 0 
    0.870964 1.394798e-01 5.516100e-14 0 
    0.872971 1.447161e-01 5.696900e-14 0 
    0.874984 1.401298e-01 5.491000e-14 0 
    0.877001 1.363130e-01 5.316900e-14 0 
    0.879023 1.369423e-01 5.316900e-14 0 
    0.881049 1.453937e-01 5.619100e-14 0 
    0.883080 1.467407e-01 5.645100e-14 0 
    0.885116 1.366355e-01 5.232200e-14 0 
    0.887156 1.464089e-01 5.580700e-14 0 
    0.889201 1.474246e-01 5.593600e-14 0 
    0.891251 1.512110e-01 5.710900e-14 0 
    0.893305 1.522599e-01 5.724100e-14 0 
    0.895365 1.498284e-01 5.606800e-14 0 
    0.897429 1.430863e-01 5.329900e-14 0 
    0.899498 1.474363e-01 5.466700e-14 0 
    0.901571 1.488048e-01 5.492100e-14 0 
    0.903650 1.512231e-01 5.555700e-14 0 
    0.905733 1.447539e-01 5.293600e-14 0 
    0.907820 1.450894e-01 5.281500e-14 0 
    0.909913 1.536881e-01 5.568800e-14 0 
    0.912011 1.287210e-01 4.642700e-14 0 
    0.914113 1.601961e-01 5.751400e-14 0 
    0.916220 1.598302e-01 5.711900e-14 0 
    0.918333 1.444325e-01 5.137900e-14 0 
    0.920450 1.495132e-01 5.294200e-14 0 
    0.922571 1.580079e-01 5.569300e-14 0 
    0.924698 1.522959e-01 5.343300e-14 0 
    0.926830 1.551293e-01 5.417700e-14 0 
    0.928966 1.537107e-01 5.343500e-14 0 
    0.931108 1.562092e-01 5.405400e-14 0 
    0.933254 1.464582e-01 5.044700e-14 0 
    0.935406 1.547847e-01 5.307000e-14 0 
    0.937562 1.635802e-01 5.582800e-14 0 
    0.939723 1.551453e-01 5.270600e-14 0 
    0.941890 1.598627e-01 5.405900e-14 0 
    0.944061 1.606035e-01 5.406000e-14 0 
    0.946237 1.591331e-01 5.331900e-14 0 
    0.948418 1.617205e-01 5.393700e-14 0 
    0.950605 1.591388e-01 5.283200e-14 0 
    0.952796 1.635983e-01 5.406300e-14 0 
    0.954993 1.624749e-01 5.344500e-14 0 
    0.957194 1.658817e-01 5.431500e-14 0 
    0.959401 1.666506e-01 5.431600e-14 0 
    0.961612 1.639859e-01 5.320200e-14 0 
    0.963829 1.647460e-01 5.320300e-14 0 
    0.966051 1.584262e-01 5.092700e-14 0 
    0.968278 1.693675e-01 5.419400e-14 0 
    0.970510 1.685920e-01 5.369800e-14 0 
    0.972747 1.697643e-01 5.382300e-14 0 
    0.974990 1.693757e-01 5.345300e-14 0 
    0.977237 1.697690e-01 5.333100e-14 0 
    0.979490 1.721357e-01 5.382600e-14 0 
    0.981748 1.713464e-01 5.333300e-14 0 
    0.984011 1.709559e-01 5.296700e-14 0 
    0.986279 1.709569e-01 5.272400e-14 0 
    0.988553 1.705670e-01 5.236200e-14 0 
    0.990832 1.745450e-01 5.333700e-14 0 
    0.993116 1.741441e-01 5.297000e-14 0 
    0.995405 1.753540e-01 5.309300e-14 0 
    0.997700 1.753572e-01 5.285000e-14 0 
    1.000000 1.757667e-01 5.273000e-14 0 
    1.002305 1.757675e-01 5.248800e-14 0 
    1.004615 1.782170e-01 5.297500e-14 0 
    1.006931 1.790430e-01 5.297600e-14 0 
    1.009253 1.790446e-01 5.273300e-14 0 
    1.013912 1.790532e-01 5.225200e-14 0 
    1.018591 1.778253e-01 5.141800e-14 0 
    1.023294 1.836597e-01 5.261800e-14 0 
    1.028017 1.840873e-01 5.225700e-14 0 
    1.032761 1.866542e-01 5.250000e-14 0 
    1.037528 1.888226e-01 5.262300e-14 0 
    1.039921 1.892620e-01 5.250300e-14 0 
    1.061696 1.919281e-01 5.108100e-14 0 
    1.081434 1.919383e-01 4.923600e-14 0 
    1.101539 1.897416e-01 4.691200e-14 0 
    1.122019 1.880039e-01 4.480100e-14 0 
    1.142879 1.928259e-01 4.428800e-14 0 
    1.161449 1.996017e-01 4.439000e-14 0 
    1.183041 2.033132e-01 4.358000e-14 0 
    1.202264 2.037828e-01 4.229500e-14 0 
    1.221799 2.080456e-01 4.181000e-14 0 
    1.241652 2.119169e-01 4.123700e-14 0 
    1.261827 2.133823e-01 4.020500e-14 0 
    1.282330 2.163553e-01 3.947200e-14 0 
    1.303166 2.188581e-01 3.866200e-14 0 
    1.324342 2.229301e-01 3.813200e-14 0 
    1.342764 2.234416e-01 3.717800e-14 0 
    1.364584 2.270694e-01 3.658300e-14 0 
    1.383566 2.297042e-01 3.599900e-14 0 
    1.406047 2.302311e-01 3.493700e-14 0 
    1.425607 2.260318e-01 3.336500e-14 0 
    1.445439 2.275937e-01 3.268000e-14 0 
    1.465547 2.350511e-01 3.283100e-14 0 
    1.485935 2.350492e-01 3.193600e-14 0 
    1.506607 2.444342e-01 3.230600e-14 0 
    1.524053 2.512815e-01 3.245500e-14 0 
    1.545255 2.619192e-01 3.290700e-14 0 
    1.566752 2.692573e-01 3.290700e-14 0 
    1.584892 2.692571e-01 3.215800e-14 0 
    1.606941 2.661707e-01 3.092300e-14 0 
    1.625549 2.723708e-01 3.092300e-14 0 
    1.648162 2.793584e-01 3.085200e-14 0 
    1.667248 2.819466e-01 3.042900e-14 0 
    1.686554 2.885140e-01 3.042900e-14 0 
    1.706082 2.911783e-01 3.001100e-14 0 
    1.725838 2.945555e-01 2.966800e-14 0 
    1.749847 2.932035e-01 2.872700e-14 0 
    1.770110 2.938712e-01 2.813700e-14 0 
    1.786487 2.898446e-01 2.724500e-14 0 
    1.807174 2.878436e-01 2.644100e-14 0 
    1.828101 2.832417e-01 2.542600e-14 0 
    1.849270 2.832506e-01 2.484800e-14 0 
    1.870681 2.819388e-01 2.417000e-14 0 
    1.887991 2.761664e-01 2.324300e-14 0 
    1.909854 2.761676e-01 2.271400e-14 0 
    1.931967 2.793649e-01 2.245400e-14 0 
    1.949844 2.768030e-01 2.184200e-14 0 
    1.972423 2.736285e-01 2.110000e-14 0 
    1.990672 2.717407e-01 2.057200e-14 0 
    2.009093 2.698773e-01 2.005800e-14 0 
    2.032357 2.717440e-01 1.973700e-14 0 
    2.051161 2.692507e-01 1.919900e-14 0 
    2.070141 2.704997e-01 1.893600e-14 0 
    2.089297 2.698689e-01 1.854700e-14 0 
    2.113488 2.704965e-01 1.816700e-14 0 
    2.133045 2.717492e-01 1.791800e-14 0 
    2.152783 2.717502e-01 1.759100e-14 0 
    2.172701 2.717509e-01 1.727000e-14 0 
    2.192805 2.692540e-01 1.679900e-14 0 
    2.213094 2.705047e-01 1.656900e-14 0 
    2.233572 2.698798e-01 1.622900e-14 0 
    2.254240 2.686302e-01 1.585900e-14 0 
    2.275097 2.686379e-01 1.557000e-14 0 
    2.296149 2.680262e-01 1.525100e-14 0 
    2.312064 2.497839e-01 1.401800e-14 0 
    2.333458 2.563337e-01 1.412300e-14 0 
    2.355050 2.366220e-01 1.279900e-14 0 
    2.376840 2.308332e-01 1.225800e-14 0 
    2.393317 2.395817e-01 1.254800e-14 0 
    2.415460 2.315692e-01 1.190700e-14 0 
    2.437811 2.322296e-01 1.172300e-14 0 
    2.454708 2.366451e-01 1.178200e-14 0 
    2.477422 2.324521e-01 1.136200e-14 0 
    2.494594 2.357687e-01 1.136600e-14 0 
    2.517677 2.166144e-01 1.025200e-14 0 
    2.535128 2.217486e-01 1.035100e-14 0 
    2.550700 1.798386e-01 8.292500e-15 2 
    2.560380 1.724917e-01 7.893700e-15 2 
    2.570060 1.825217e-01 8.289900e-15 2 
    2.579730 1.737090e-01 7.830600e-15 2 
    2.589410 1.782089e-01 7.973500e-15 2 
    2.599090 2.018790e-01 8.965400e-15 2 
    2.608760 2.043844e-01 9.009500e-15 2 
    2.618440 2.063770e-01 9.030200e-15 2 
    2.628110 2.119516e-01 9.206000e-15 2 
    2.637790 2.165681e-01 9.337600e-15 2 
    2.647470 2.267653e-01 9.705900e-15 2 
    2.657140 2.269752e-01 9.644300e-15 2 
    2.666820 2.323965e-01 9.803100e-15 2 
    2.676500 2.459043e-01 1.029800e-14 2 
    2.686170 2.483578e-01 1.032600e-14 2 
    2.695850 2.454998e-01 1.013400e-14 2 
    2.705520 2.495089e-01 1.022600e-14 2 
    2.715200 2.487909e-01 1.012400e-14 2 
    2.724880 2.559388e-01 1.034100e-14 2 
    2.734550 2.562131e-01 1.027900e-14 2 
    2.744230 2.631763e-01 1.048400e-14 2 
    2.753910 2.713562e-01 1.073400e-14 2 
    2.763580 2.743345e-01 1.077600e-14 2 
    2.773260 2.820023e-01 1.100000e-14 2 
    2.782930 2.803065e-01 1.085800e-14 2 
    2.792610 2.820779e-01 1.085100e-14 2 
    2.802290 2.803722e-01 1.071100e-14 2 
    2.811960 2.778035e-01 1.054000e-14 2 
    2.821640 2.669277e-01 1.005800e-14 2 
    2.831320 2.718619e-01 1.017400e-14 2 
    2.840990 2.856406e-01 1.061700e-14 2 
    2.850670 2.744800e-01 1.013300e-14 2 
    2.860340 2.739181e-01 1.004400e-14 2 
    2.870020 2.633785e-01 9.592500e-15 2 
    2.879700 2.635494e-01 9.534300e-15 2 
    2.889370 2.612010e-01 9.386200e-15 2 
    2.899050 2.746980e-01 9.805400e-15 2 
    2.908730 2.761012e-01 9.790000e-15 2 
    2.918400 2.797428e-01 9.853500e-15 2 
    2.928080 2.587071e-01 9.052400e-15 2 
    2.937750 2.667246e-01 9.271600e-15 2 
    2.947430 2.660210e-01 9.186500e-15 2 
    2.957110 2.730615e-01 9.368000e-15 2 
    2.966780 2.766988e-01 9.431000e-15 2 
    2.976460 2.665590e-01 9.026400e-15 2 
    2.986140 2.641938e-01 8.888400e-15 2 
    2.995810 2.635772e-01 8.810500e-15 2 
    3.005490 2.563467e-01 8.513700e-15 2 
    3.015170 2.676737e-01 8.832900e-15 2 
    3.024840 2.560989e-01 8.397000e-15 2 
    3.034520 2.733150e-01 8.904400e-15 2 
    3.044190 2.595991e-01 8.403900e-15 2 
    3.053870 2.717383e-01 8.741200e-15 2 
    3.063550 2.759602e-01 8.821000e-15 2 
    3.073220 2.821535e-01 8.962300e-15 2 
    3.082900 2.461258e-01 7.768900e-15 2 
    3.092580 2.461468e-01 7.721000e-15 2 
    3.102250 2.793481e-01 8.707900e-15 2 
    3.111930 2.960852e-01 9.172300e-15 2 
    3.121600 3.052397e-01 9.397400e-15 2 
    3.131280 3.041386e-01 9.305700e-15 2 
    3.140960 3.033780e-01 9.225300e-15 2 
    3.150630 3.011426e-01 9.101200e-15 2 
    3.160310 2.850849e-01 8.563200e-15 2 
    3.169990 3.016728e-01 9.006200e-15 2 
    3.179660 3.079578e-01 9.138000e-15 2 
    3.189340 3.312137e-01 9.768500e-15 2 
    3.199010 3.448745e-01 1.011000e-14 2 
    3.208690 3.649823e-01 1.063500e-14 2 
    3.218370 3.305898e-01 9.575000e-15 2 
    3.228040 3.301063e-01 9.503800e-15 2 
    3.237720 3.232555e-01 9.251000e-15 2 
    3.247400 3.516257e-01 1.000300e-14 2 
    3.257070 3.559507e-01 1.006600e-14 2 
    3.266750 3.682432e-01 1.035200e-14 2 
    3.276420 3.574409e-01 9.989100e-15 2 
    3.286100 3.651677e-01 1.014500e-14 2 
    3.295780 3.771344e-01 1.041600e-14 2 
    3.305450 4.304844e-01 1.182000e-14 2 
    3.315130 4.157916e-01 1.135000e-14 2 
    3.324810 4.290935e-01 1.164500e-14 2 
    3.334480 4.513845e-01 1.217900e-14 2 
    3.344160 4.670936e-01 1.253000e-14 2 
    3.353830 4.334297e-01 1.156000e-14 2 
    3.363510 4.198329e-01 1.113300e-14 2 
    3.373190 4.398893e-01 1.159800e-14 2 
    3.382860 4.453523e-01 1.167500e-14 2 
    3.392540 4.312161e-01 1.124000e-14 2 
    3.402220 4.646631e-01 1.204300e-14 2 
    3.411890 4.502736e-01 1.160400e-14 2 
    3.421570 4.486957e-01 1.149800e-14 2 
    3.431240 4.433080e-01 1.129600e-14 2 
    3.440920 4.044520e-01 1.024800e-14 2 
    3.450600 4.261386e-01 1.073700e-14 2 
    3.460270 4.682025e-01 1.173100e-14 2 
    3.469950 4.568587e-01 1.138300e-14 2 
    3.479620 4.358792e-01 1.080000e-14 2 
    3.489300 4.178534e-01 1.029600e-14 2 
    3.498980 4.384169e-01 1.074300e-14 2 
    3.508650 4.201206e-01 1.023800e-14 2 
    3.518330 4.220706e-01 1.022900e-14 2 
    3.528010 3.883378e-01 9.359900e-15 2 
    3.537680 4.083203e-01 9.787800e-15 2 
    3.547360 3.998281e-01 9.532000e-15 2 
    3.557030 4.099356e-01 9.719900e-15 2 
    3.566710 3.993212e-01 9.416900e-15 2 
    3.576390 4.148108e-01 9.729300e-15 2 
    3.586060 4.216095e-01 9.835500e-15 2 
    3.595740 4.187815e-01 9.717000e-15 2 
    3.605420 4.260050e-01 9.831600e-15 2 
    3.615090 4.238149e-01 9.728800e-15 2 
    3.624770 4.010360e-01 9.156800e-15 2 
    3.634440 4.011928e-01 9.111700e-15 2 
    3.644120 4.014116e-01 9.068300e-15 2 
    3.653800 4.031955e-01 9.060400e-15 2 
    3.663470 4.341787e-01 9.705200e-15 2 
    3.673150 4.448188e-01 9.890700e-15 2 
    3.682830 4.280603e-01 9.468100e-15 2 
    3.692500 4.152722e-01 9.137200e-15 2 
    3.702180 4.063185e-01 8.893500e-15 2 
    3.711850 3.982114e-01 8.670700e-15 2 
    3.721530 4.101337e-01 8.883900e-15 2 
    3.731210 4.353991e-01 9.382300e-15 2 
    3.740880 4.048844e-01 8.679700e-15 2 
    3.750560 3.545794e-01 7.562100e-15 2 
    3.760240 3.875328e-01 8.222400e-15 2 
    3.769910 4.394372e-01 9.275900e-15 2 
    3.779590 4.475489e-01 9.398800e-15 2 
    3.789260 4.525318e-01 9.455000e-15 2 
    3.798940 4.651993e-01 9.670200e-15 2 
    3.808620 4.500745e-01 9.308300e-15 2 
    3.818290 4.552398e-01 9.367500e-15 2 
    3.827970 4.700503e-01 9.623400e-15 2 
    3.837650 4.659014e-01 9.490400e-15 2 
    3.847320 4.587840e-01 9.298500e-15 2 
    3.857000 4.508705e-01 9.092300e-15 2 
    3.866670 4.818153e-01 9.667800e-15 2 
    3.876350 4.957107e-01 9.897000e-15 2 
    3.886030 4.630490e-01 9.198900e-15 2 
    3.895700 4.564478e-01 9.022800e-15 2 
    3.905380 4.571277e-01 8.991500e-15 2 
    3.915060 4.708259e-01 9.215200e-15 2 
    3.924730 5.036638e-01 9.809400e-15 2 
    3.934410 4.797020e-01 9.296800e-15 2 
    3.944080 4.745702e-01 9.152300e-15 2 
    3.953760 4.773663e-01 9.161200e-15 2 
    3.963440 4.811046e-01 9.187900e-15 2 
    3.973110 4.725684e-01 8.981000e-15 2 
    3.982790 4.753074e-01 8.989200e-15 2 
    3.992470 4.653948e-01 8.759100e-15 2 
    4.002140 4.660662e-01 8.729400e-15 2 
    4.011820 4.896275e-01 9.126500e-15 2 
    4.021500 4.802412e-01 8.908500e-15 2 
    4.031170 4.892216e-01 9.031600e-15 2 
    4.040850 4.928912e-01 9.055800e-15 2 
    4.050520 4.967569e-01 9.083300e-15 2 
    4.060200 5.283844e-01 9.615600e-15 2 
    4.069880 5.203225e-01 9.423900e-15 2 
    4.079550 5.212392e-01 9.395800e-15 2 
    4.089230 5.173168e-01 9.281000e-15 2 
    4.098910 5.270550e-01 9.411100e-15 2 
    4.108580 5.292690e-01 9.406200e-15 2 
    4.118260 5.277068e-01 9.334400e-15 2 
    4.127930 4.973920e-01 8.757000e-15 2 
    4.137610 5.160826e-01 9.043600e-15 2 
    4.147290 5.422533e-01 9.457900e-15 2 
    4.156960 5.302466e-01 9.205500e-15 2 
    4.166640 4.650403e-01 8.036000e-15 2 
    4.176320 5.129589e-01 8.823000e-15 2 
    4.185990 5.326376e-01 9.119200e-15 2 
    4.195670 5.478255e-01 9.336000e-15 2 
    4.205340 5.420535e-01 9.195200e-15 2 
    4.215020 5.291187e-01 8.934600e-15 2 
    4.224700 5.149769e-01 8.656000e-15 2 
    4.234370 5.062803e-01 8.471000e-15 2 
    4.244050 5.080874e-01 8.462500e-15 2 
    4.253730 5.352692e-01 8.874700e-15 2 
    4.263400 4.593101e-01 7.580800e-15 2 
    4.273080 5.119823e-01 8.411900e-15 2 
    4.282750 5.248610e-01 8.584600e-15 2 
    4.292430 5.366883e-01 8.738500e-15 2 
    4.302110 5.519007e-01 8.945800e-15 2 
    4.311780 5.747794e-01 9.274900e-15 2 
    4.321460 5.266666e-01 8.460500e-15 2 
    4.331140 5.332744e-01 8.528400e-15 2 
    4.340810 5.352564e-01 8.522000e-15 2 
    4.350490 5.620617e-01 8.909000e-15 2 
    4.360160 5.522124e-01 8.714100e-15 2 
    4.369840 5.821581e-01 9.146000e-15 2 
    4.379520 5.845739e-01 9.143400e-15 2 
    4.389190 6.091461e-01 9.485800e-15 2 
    4.398870 6.221301e-01 9.645400e-15 2 
    4.408550 6.124585e-01 9.453800e-15 2 
    4.418220 6.139575e-01 9.435500e-15 2 
    4.427900 5.783662e-01 8.849700e-15 2 
    4.437570 5.770617e-01 8.791300e-15 2 
    4.447250 5.785338e-01 8.775400e-15 2 
    4.456930 5.783337e-01 8.734300e-15 2 
    4.466600 5.797287e-01 8.717500e-15 2 
    4.476280 5.812023e-01 8.701900e-15 2 
    4.485960 5.789025e-01 8.630100e-15 2 
    4.495630 5.797773e-01 8.606000e-15 2 
    4.505310 5.936233e-01 8.773700e-15 2 
    4.514980 6.040496e-01 8.889600e-15 2 
    4.524660 5.758929e-01 8.439000e-15 2 
    4.534340 5.517682e-01 8.051000e-15 2 
    4.544010 6.244377e-01 9.072600e-15 2 
    4.553690 6.195806e-01 8.963800e-15 2 
    4.563360 5.908466e-01 8.511900e-15 2 
    4.573040 6.018603e-01 8.633900e-15 2 
    4.582720 5.798745e-01 8.283400e-15 2 
    4.592390 5.839341e-01 8.306300e-15 2 
    4.602070 5.835180e-01 8.265500e-15 2 
    4.611750 5.945749e-01 8.386800e-15 2 
    4.621420 6.169547e-01 8.666100e-15 2 
    4.631100 5.875286e-01 8.218300e-15 2 
    4.640780 5.760100e-01 8.023600e-15 2 
    4.650450 5.893416e-01 8.175200e-15 2 
    4.660130 6.179374e-01 8.536300e-15 2 
    4.669800 5.652964e-01 7.776800e-15 2 
    4.679480 6.090580e-01 8.344200e-15 2 
    4.689160 6.080550e-01 8.296100e-15 2 
    4.698830 6.114559e-01 8.308200e-15 2 
    4.708510 6.322386e-01 8.555300e-15 2 
    4.718190 6.289787e-01 8.476300e-15 2 
    4.727860 6.175892e-01 8.288800e-15 2 
    4.737540 6.497246e-01 8.684500e-15 2 
    4.747210 6.632722e-01 8.829500e-15 2 
    4.756890 6.564835e-01 8.703600e-15 2 
    4.766570 6.523799e-01 8.614100e-15 2 
    4.776240 6.463609e-01 8.500100e-15 2 
    4.785920 6.403025e-01 8.386400e-15 2 
    4.795600 6.566633e-01 8.566000e-15 2 
    4.805270 6.604687e-01 8.581000e-15 2 
    4.814950 6.805356e-01 8.806200e-15 2 
    4.824620 6.642545e-01 8.561100e-15 2 
    4.834300 6.683483e-01 8.579400e-15 2 
    4.843980 6.682901e-01 8.544400e-15 2 
    4.853650 7.132474e-01 9.082900e-15 2 
    4.863330 7.043875e-01 8.934400e-15 2 
    4.873000 6.971468e-01 8.807500e-15 2 
    4.882680 6.729714e-01 8.468400e-15 2 
    4.892360 6.813710e-01 8.540200e-15 2 
    4.902030 6.578425e-01 8.212800e-15 2 
    4.911710 6.703505e-01 8.336000e-15 2 
    4.921390 6.561139e-01 8.126900e-15 2 
    4.931060 7.215663e-01 8.902600e-15 2 
    4.940740 6.880052e-01 8.455300e-15 2 
    4.950420 6.679453e-01 8.176700e-15 2 
    4.960190 6.393707e-01 7.796100e-15 2 
    5.009792 6.456967e-01 7.718100e-15 0 
    5.059890 6.519417e-01 7.639200e-15 0 
    5.110489 6.581160e-01 7.559600e-15 0 
    5.161594 6.641953e-01 7.479100e-15 0 
    5.213210 6.701896e-01 7.397900e-15 0 
    5.265342 6.760825e-01 7.315900e-15 0 
    5.317996 6.818569e-01 7.233000e-15 0 
    5.335773 6.837659e-01 7.205000e-15 3 
    5.366758 7.033951e-01 7.326500e-15 3 
    5.397744 7.407348e-01 7.627100e-15 3 
    5.428729 6.761947e-01 6.883300e-15 3 
    5.459714 6.287800e-01 6.328200e-15 3 
    5.490700 6.412836e-01 6.381400e-15 3 
    5.521685 6.513875e-01 6.409400e-15 3 
    5.552670 7.012154e-01 6.822900e-15 3 
    5.583656 7.365305e-01 7.087200e-15 3 
    5.614641 7.071507e-01 6.729600e-15 3 
    5.645627 7.649226e-01 7.199700e-15 3 
    5.676612 8.282838e-01 7.711200e-15 3 
    5.707598 8.755959e-01 8.063400e-15 3 
    5.738583 8.999474e-01 8.198400e-15 3 
    5.769568 9.220530e-01 8.309800e-15 3 
    5.800553 9.050213e-01 8.069400e-15 3 
    5.831539 8.817862e-01 7.778900e-15 3 
    5.862525 8.693919e-01 7.588700e-15 3 
    5.893510 8.653726e-01 7.474400e-15 3 
    5.924495 9.188969e-01 7.853900e-15 3 
    5.955481 9.382757e-01 7.936300e-15 3 
    5.986466 9.371817e-01 7.845200e-15 3 
    6.017451 9.782297e-01 8.104700e-15 3 
    6.048437 1.093862e+00 8.970100e-15 3 
    6.079422 1.207438e+00 9.800800e-15 3 
    6.110407 1.264980e+00 1.016400e-14 3 
    6.141393 1.330897e+00 1.058600e-14 3 
    6.172378 1.506024e+00 1.185900e-14 3 
    6.203363 1.928447e+00 1.503400e-14 3 
    6.234349 2.571836e+00 1.985100e-14 3 
    6.265334 3.051769e+00 2.332300e-14 3 
    6.296319 3.059299e+00 2.315100e-14 3 
    6.327305 2.733309e+00 2.048200e-14 3 
    6.358290 2.353709e+00 1.746600e-14 3 
    6.389276 2.075434e+00 1.525200e-14 3 
    6.420261 1.861896e+00 1.355100e-14 3 
    6.451246 1.727448e+00 1.245200e-14 3 
    6.482232 1.605839e+00 1.146500e-14 3 
    6.513217 1.526202e+00 1.079300e-14 3 
    6.544202 1.471236e+00 1.030600e-14 3 
    6.575188 1.460846e+00 1.013700e-14 3 
    6.606173 1.461845e+00 1.004900e-14 3 
    6.637158 1.477793e+00 1.006400e-14 3 
    6.668145 1.500962e+00 1.012700e-14 3 
    6.699129 1.532445e+00 1.024400e-14 3 
    6.730114 1.540917e+00 1.020600e-14 3 
    6.761100 1.566109e+00 1.027800e-14 3 
    6.792085 1.575576e+00 1.024600e-14 3 
    6.823071 1.558328e+00 1.004200e-14 3 
    6.854056 1.528103e+00 9.758400e-15 3 
    6.885041 1.510806e+00 9.561300e-15 3 
    6.916027 1.521629e+00 9.543700e-15 3 
    6.947012 1.595089e+00 9.915400e-15 3 
    6.977998 1.705859e+00 1.051000e-14 3 
    7.008983 1.773115e+00 1.082800e-14 3 
    7.039968 2.040432e+00 1.235100e-14 3 
    7.070954 2.117265e+00 1.270400e-14 3 
    7.101939 1.929068e+00 1.147400e-14 3 
    7.132924 1.969172e+00 1.161100e-14 3 
    7.163910 2.065524e+00 1.207400e-14 3 
    7.194895 2.132608e+00 1.235900e-14 3 
    7.225881 2.169291e+00 1.246400e-14 3 
    7.256866 2.204436e+00 1.255800e-14 3 
    7.287851 2.277476e+00 1.286400e-14 3 
    7.318838 2.352235e+00 1.317400e-14 3 
    7.349822 2.450162e+00 1.360700e-14 3 
    7.380807 2.573279e+00 1.417100e-14 3 
    7.411793 2.732817e+00 1.492400e-14 3 
    7.442778 2.935563e+00 1.589800e-14 3 
    7.473763 3.167286e+00 1.701100e-14 3 
    7.504748 3.439162e+00 1.831900e-14 3 
    7.533706 3.441539e+00 1.819100e-14 3 
    7.535734 3.723732e+00 1.967200e-14 3 
    7.566720 3.959392e+00 2.074600e-14 3 
    7.595799 4.088735e+00 2.126000e-14 3 
    7.597705 4.192960e+00 2.179100e-14 3 
    7.657894 4.568511e+00 2.337100e-14 3 
    7.719988 4.732893e+00 2.382400e-14 3 
    7.782082 4.556191e+00 2.257000e-14 3 
    7.844176 4.511050e+00 2.199400e-14 3 
    7.906271 4.465444e+00 2.143100e-14 3 
    7.968365 4.198914e+00 1.983900e-14 3 
    8.030459 3.777293e+00 1.757200e-14 3 
    8.092554 3.449546e+00 1.580200e-14 3 
    8.154648 3.137389e+00 1.415400e-14 3 
    8.216741 2.924067e+00 1.299300e-14 3 
    8.278836 2.808048e+00 1.229100e-14 3 
    8.340930 2.779830e+00 1.198700e-14 3 
    8.403025 2.779478e+00 1.180900e-14 3 
    8.465119 2.782728e+00 1.165000e-14 3 
    8.527213 2.832186e+00 1.168500e-14 3 
    8.589307 2.970967e+00 1.208100e-14 3 
    8.651402 3.061732e+00 1.227200e-14 3 
    8.713495 2.983093e+00 1.178700e-14 3 
    8.775590 2.711813e+00 1.056400e-14 3 
    8.837684 2.329133e+00 8.946200e-15 3 
    8.899778 2.020863e+00 7.654200e-15 3 
    8.961872 1.775607e+00 6.632400e-15 3 
    9.023966 1.678774e+00 6.184700e-15 3 
    9.086060 1.659083e+00 6.028900e-15 3 
    9.148155 1.453673e+00 5.211000e-15 3 
    9.210249 1.330482e+00 4.705300e-15 3 
    9.272344 1.285576e+00 4.485800e-15 3 
    9.334438 1.239362e+00 4.267200e-15 3 
    9.396532 1.206401e+00 4.099000e-15 3 
    9.458626 1.175459e+00 3.941600e-15 3 
    9.520720 1.150274e+00 3.807000e-15 3 
    9.582815 1.127860e+00 3.684600e-15 3 
    9.644909 1.115361e+00 3.597000e-15 3 
    9.707002 1.189790e+00 3.788100e-15 3 
    9.769098 1.263913e+00 3.973100e-15 3 
    9.831192 1.146490e+00 3.558600e-15 3 
    9.893286 1.069438e+00 3.277900e-15 3 
    9.955380 1.064305e+00 3.221600e-15 3 
   10.017470 1.070163e+00 3.199300e-15 3 
   10.079570 1.087434e+00 3.211000e-15 3 
   10.141659 1.105261e+00 3.223800e-15 3 
   10.203760 1.133206e+00 3.265200e-15 3 
   10.265850 1.139908e+00 3.244900e-15 3 
   10.327949 1.176105e+00 3.307800e-15 3 
   10.390041 1.206086e+00 3.351700e-15 3 
   10.452130 1.259909e+00 3.459800e-15 3 
   10.514230 1.315460e+00 3.569800e-15 3 
   10.576320 1.505952e+00 4.038900e-15 3 
   10.638420 1.633959e+00 4.331200e-15 3 
   10.700510 1.586448e+00 4.156600e-15 3 
   10.762600 1.574101e+00 4.076800e-15 3 
   10.824700 1.600169e+00 4.096900e-15 3 
   10.886791 1.624307e+00 4.111400e-15 3 
   10.948890 1.663949e+00 4.164100e-15 3 
   11.010980 1.774453e+00 4.390700e-15 3 
   11.073080 1.998389e+00 4.889500e-15 3 
   11.135170 2.228178e+00 5.391100e-15 3 
   11.197260 2.465863e+00 5.900200e-15 3 
   11.259360 3.303540e+00 7.817600e-15 3 
   11.321450 4.559193e+00 1.067100e-14 3 
   11.383550 4.820138e+00 1.115900e-14 3 
   11.445640 4.271779e+00 9.782500e-15 3 
   11.507740 3.708825e+00 8.401900e-15 3 
   11.569830 3.355270e+00 7.519600e-15 3 
   11.631920 3.148242e+00 6.980500e-15 3 
   11.694020 3.044559e+00 6.679100e-15 3 
   11.756110 2.979494e+00 6.467500e-15 3 
   11.818209 2.975718e+00 6.391600e-15 3 
   11.880299 3.022357e+00 6.424100e-15 3 
   11.942400 3.151495e+00 6.629100e-15 3 
   12.004490 3.313038e+00 6.897000e-15 3 
   12.066580 3.498145e+00 7.207600e-15 3 
   12.128680 3.629911e+00 7.402700e-15 3 
   12.190770 3.737218e+00 7.544100e-15 3 
   12.252870 3.818078e+00 7.629400e-15 3 
   12.314959 3.948624e+00 7.810900e-15 3 
   12.377051 4.237580e+00 8.298600e-15 3 
   12.439150 4.475121e+00 8.676500e-15 3 
   12.501240 4.608362e+00 8.846300e-15 3 
   12.563340 4.799155e+00 9.121700e-15 3 
   12.625430 5.067214e+00 9.536700e-15 3 
   12.687530 5.317005e+00 9.909100e-15 3 
   12.749620 5.580438e+00 1.029900e-14 3 
   12.811710 5.854871e+00 1.070100e-14 3 
   12.873810 6.890156e+00 1.247200e-14 3 
   12.935900 8.721073e+00 1.563500e-14 3 
   12.998000 7.250122e+00 1.287400e-14 3 
   13.060090 5.438495e+00 9.565500e-15 3 
   13.122180 5.112541e+00 8.907300e-15 3 
   13.184280 5.090414e+00 8.785400e-15 3 
   13.246370 5.114609e+00 8.744600e-15 3 
   13.308470 5.132922e+00 8.694200e-15 3 
   13.370559 5.189926e+00 8.709300e-15 3 
   13.432659 5.221226e+00 8.681000e-15 3 
   13.494750 5.281261e+00 8.700200e-15 3 
   13.556841 5.337385e+00 8.712300e-15 3 
   13.618941 5.424541e+00 8.774000e-15 3 
   13.681030 5.525588e+00 8.856500e-15 3 
   13.743130 5.561698e+00 8.834000e-15 3 
   13.805220 5.590277e+00 8.799700e-15 3 
   13.867320 5.605620e+00 8.745000e-15 3 
   13.929409 5.659616e+00 8.750700e-15 3 
   13.991500 5.736938e+00 8.791700e-15 3 
   14.053600 5.846109e+00 8.880000e-15 3 
   14.115691 5.912559e+00 8.902100e-15 3 
   14.177789 5.948749e+00 8.878300e-15 3 
   14.239880 5.951287e+00 8.804800e-15 3 
   14.301980 5.890875e+00 8.639900e-15 3 
   14.364070 5.694475e+00 8.279800e-15 3 
   14.426159 5.487829e+00 7.910800e-15 3 
   14.488261 5.401886e+00 7.720300e-15 3 
   14.541691 5.984903e+00 8.490800e-15 3 
   14.633380 6.063041e+00 8.494200e-15 3 
   14.725080 6.116138e+00 8.462200e-15 3 
   14.816770 6.059798e+00 8.280800e-15 3 
   14.908459 6.087908e+00 8.217200e-15 3 
   15.000150 6.048046e+00 8.063900e-15 3 
   15.091850 5.994367e+00 7.895500e-15 3 
   15.183541 6.044526e+00 7.865700e-15 3 
   15.275230 6.104682e+00 7.848900e-15 3 
   15.366930 6.082638e+00 7.727500e-15 3 
   15.458620 5.950486e+00 7.470200e-15 3 
   15.550309 5.957364e+00 7.390900e-15 3 
   15.642000 6.718942e+00 8.238300e-15 3 
   15.733700 7.373752e+00 8.936100e-15 3 
   15.825391 6.334288e+00 7.587700e-15 3 
   15.917080 5.938689e+00 7.032100e-15 3 
   16.008780 5.849273e+00 6.847100e-15 3 
   16.100470 5.742528e+00 6.645800e-15 3 
   16.192159 5.693632e+00 6.514800e-15 3 
   16.283859 5.776423e+00 6.535300e-15 3 
   16.375550 5.834774e+00 6.527600e-15 3 
   16.467239 6.098974e+00 6.747400e-15 3 
   16.558930 6.484603e+00 7.094800e-15 3 
   16.650631 6.761045e+00 7.316000e-15 3 
   16.742319 6.627630e+00 7.093300e-15 3 
   16.834009 6.659049e+00 7.049500e-15 3 
   16.925700 6.737039e+00 7.055000e-15 3 
   17.017400 6.731178e+00 6.973100e-15 3 
   17.109091 7.017693e+00 7.192200e-15 3 
   17.200781 7.800333e+00 7.909300e-15 3 
   17.292481 7.641211e+00 7.666000e-15 3 
   17.384170 7.237008e+00 7.184100e-15 3 
   17.475861 7.237810e+00 7.109700e-15 3 
   17.567561 7.286088e+00 7.082600e-15 3 
   17.659250 7.190305e+00 6.917100e-15 3 
   17.750941 7.125473e+00 6.784100e-15 3 
   17.842630 7.116182e+00 6.705800e-15 3 
   17.934330 7.147810e+00 6.666900e-15 3 
   18.026020 7.153172e+00 6.604200e-15 3 
   18.117709 7.223281e+00 6.601600e-15 3 
   18.209409 7.140189e+00 6.460100e-15 3 
   18.301100 7.150203e+00 6.404500e-15 3 
   18.392789 7.254504e+00 6.433300e-15 3 
   18.484489 7.278048e+00 6.390300e-15 3 
   18.576180 7.412314e+00 6.444100e-15 3 
   18.667870 7.583826e+00 6.528600e-15 3 
   18.759559 7.810771e+00 6.658400e-15 3 
   18.851259 9.548081e+00 8.060400e-15 3 
   18.942950 9.998349e+00 8.359000e-15 3 
   19.034639 8.330162e+00 6.897400e-15 3 
   19.126341 8.455857e+00 6.934500e-15 3 
   19.218031 8.549191e+00 6.944300e-15 3 
   19.309719 8.748164e+00 7.038600e-15 3 
   19.401409 8.773222e+00 6.992200e-15 3 
   19.493111 8.896504e+00 7.023900e-15 3 
   19.584800 9.180869e+00 7.180700e-15 3 
   19.676491 9.397122e+00 7.281500e-15 3 
   19.768191 9.507319e+00 7.298700e-15 3 
   19.859880 9.681438e+00 7.363900e-15 3 
   19.951570 9.978432e+00 7.520200e-15 3 
   20.043261 9.995502e+00 7.464300e-15 3 
   20.134961 1.033826e+01 7.650100e-15 3 
   20.226650 1.073415e+01 7.871200e-15 3 
   20.318341 1.075476e+01 7.815300e-15 3 
   20.410041 1.112172e+01 8.009500e-15 3 
   20.555241 1.081674e+01 7.680200e-15 3 
   20.730739 1.223150e+01 8.538300e-15 3 
   20.906339 1.210945e+01 8.311700e-15 3 
   21.082041 1.195622e+01 8.070300e-15 3 
   21.257830 1.318043e+01 8.750100e-15 3 
   21.433709 1.334201e+01 8.712600e-15 3 
   21.609689 1.307898e+01 8.402300e-15 3 
   21.785761 1.395286e+01 8.819400e-15 3 
   21.961930 1.490630e+01 9.271500e-15 3 
   22.138200 1.466346e+01 8.975800e-15 3 
   22.314559 1.448307e+01 8.725800e-15 3 
   22.491020 1.541987e+01 9.145000e-15 3 
   22.667570 1.613254e+01 9.419200e-15 3 
   22.844219 1.602888e+01 9.214500e-15 3 
   23.020969 1.579172e+01 8.939300e-15 3 
   23.197809 1.676427e+01 9.345700e-15 3 
   23.374750 1.756317e+01 9.643400e-15 3 
   23.551791 1.797370e+01 9.721000e-15 3 
   23.728920 1.802192e+01 9.602100e-15 3 
   23.906161 1.834339e+01 9.629000e-15 3 
   24.083481 1.947301e+01 1.007200e-14 3 
   24.260909 2.038686e+01 1.039100e-14 3 
   24.438441 2.064252e+01 1.036900e-14 3 
   24.616061 2.086489e+01 1.033000e-14 3 
   24.793780 2.179838e+01 1.063800e-14 3 
   24.971600 2.313901e+01 1.113200e-14 3 
   25.149509 2.363644e+01 1.121100e-14 3 
   25.327530 2.389313e+01 1.117400e-14 3 
   25.505641 2.409375e+01 1.111100e-14 3 
   25.683861 2.498575e+01 1.136300e-14 3 
   25.862169 2.584443e+01 1.159200e-14 3 
   26.040581 2.654582e+01 1.174400e-14 3 
   26.219091 2.730515e+01 1.191600e-14 3 
   26.397700 2.708611e+01 1.166100e-14 3 
   26.576409 2.747764e+01 1.167100e-14 3 
   26.755222 2.844040e+01 1.191900e-14 3 
   26.934131 2.899130e+01 1.198900e-14 3 
   27.113141 2.990723e+01 1.220500e-14 3 
   27.292250 3.034091e+01 1.222000e-14 3 
   27.471459 3.043629e+01 1.209900e-14 3 
   27.650781 3.073554e+01 1.206000e-14 3 
   27.830191 3.154618e+01 1.221900e-14 3 
   28.009700 3.296389e+01 1.260500e-14 3 
   28.189319 3.397606e+01 1.282700e-14 3 
   28.369041 3.409143e+01 1.270800e-14 3 
   28.548850 3.441357e+01 1.266700e-14 3 
   28.728769 3.462035e+01 1.258400e-14 3 
   28.908791 3.539545e+01 1.270600e-14 3 
   29.088922 3.627511e+01 1.286100e-14 3 
   29.269150 3.783969e+01 1.325100e-14 3 
   29.449472 3.701514e+01 1.280400e-14 3 
   29.629909 3.866703e+01 1.321300e-14 3 
   29.810441 3.924037e+01 1.324700e-14 3 
   29.991078 3.948650e+01 1.317000e-14 3 
   30.171819 3.920829e+01 1.292100e-14 3 
   30.352659 4.180172e+01 1.361200e-14 3 
   30.533609 4.140039e+01 1.332200e-14 3 
   30.714659 4.227332e+01 1.344300e-14 3 
   30.895809 4.231525e+01 1.329900e-14 3 
   31.077069 4.344097e+01 1.349400e-14 3 
   31.258441 4.137651e+01 1.270400e-14 3 
   31.439909 4.282702e+01 1.299800e-14 3 
   31.621481 4.446302e+01 1.334000e-14 3 
   31.803150 4.616888e+01 1.369400e-14 3 
   31.984941 4.574678e+01 1.341500e-14 3 
   32.166822 4.662033e+01 1.351700e-14 3 
   32.348819 4.912018e+01 1.408200e-14 3 
   32.530909 4.687739e+01 1.328900e-14 3 
   32.713119 4.892717e+01 1.371600e-14 3 
   32.895431 4.789056e+01 1.327700e-14 3 
   33.077838 4.886079e+01 1.339700e-14 3 
   33.260359 4.982188e+01 1.351100e-14 3 
   33.442991 4.983367e+01 1.336700e-14 3 
   33.625728 5.631588e+01 1.494200e-14 3 
   33.808572 5.752817e+01 1.509900e-14 3 
   33.991519 5.715494e+01 1.484000e-14 3 
   34.174569 5.406215e+01 1.388700e-14 3 
   34.357731 5.260495e+01 1.336900e-14 3 
   34.541013 5.461927e+01 1.373400e-14 3 
   34.724381 5.743545e+01 1.429000e-14 3 
   34.907872 5.904327e+01 1.453600e-14 3 
