# NGC 4889
# 
# An Atlas of Galaxy Spectral Energy Distributions from the Ultraviolet to the Mid-Infrared
# Brown et al. (2014)
# http://dx.doi.org/10.5072/03/529D3551F0117
# http://dx.doi.org/10.17909/t9-5bxk-dh29
# 
# The Spectral Energy Distributions of Active Galactic Nuclei
# Brown et al. (2019)
# http://dx.doi.org/10.17909/t9-3dbt-8734
# 
# Column 1: Observed wavelength (um)
# Column 2: f_nu (Jy)
# Column 3: f_lam (erg/s/cm2/A)
# Column 4: Source (0 = model, 1 = Optical Spectrun, 2 = Akari, 3 = Spitzer IRS)
# 
    0.010423 1.918491e-09 5.297800e-18 0 
    0.010617 2.327983e-09 6.195800e-18 0 
    0.010839 2.897036e-09 7.397700e-18 0 
    0.011041 3.672755e-09 9.038500e-18 0 
    0.011246 5.271796e-09 1.250500e-17 0 
    0.011641 7.498380e-09 1.660000e-17 0 
    0.012050 1.009157e-08 2.085000e-17 0 
    0.012359 3.872032e-08 7.604900e-17 0 
    0.012764 4.852291e-08 8.935000e-17 0 
    0.012972 5.272155e-08 9.399300e-17 0 
    0.013092 5.610280e-08 9.819600e-17 0 
    0.013397 6.236917e-08 1.042500e-16 0 
    0.013490 7.396277e-08 1.219300e-16 0 
    0.013677 7.851546e-08 1.259200e-16 0 
    0.013996 1.009215e-07 1.545600e-16 0 
    0.014289 1.106563e-07 1.625900e-16 0 
    0.014622 3.133210e-07 4.396400e-16 0 
    0.015031 7.708011e-07 1.023500e-15 0 
    0.015417 8.375188e-07 1.057100e-15 0 
    0.015849 9.246334e-07 1.104300e-15 0 
    0.016255 1.020789e-06 1.159000e-15 0 
    0.016558 1.091460e-06 1.194300e-15 0 
    0.016943 1.204908e-06 1.259200e-15 0 
    0.017378 1.312168e-06 1.303500e-15 0 
    0.017660 1.396267e-06 1.343100e-15 0 
    0.018072 1.510077e-06 1.387100e-15 0 
    0.018408 1.603233e-06 1.419400e-15 0 
    0.018578 1.659443e-06 1.442400e-15 0 
    0.019011 1.790586e-06 1.486300e-15 0 
    0.019498 1.949649e-06 1.538500e-15 0 
    0.019815 2.069968e-06 1.581600e-15 0 
    0.020230 2.207783e-06 1.618400e-15 0 
    0.020654 2.371259e-06 1.667600e-15 0 
    0.020941 2.482931e-06 1.698600e-15 0 
    0.021478 2.570235e-06 1.671500e-15 0 
    0.022080 2.930684e-06 1.803400e-15 0 
    0.022491 3.125954e-06 1.853900e-15 0 
    0.022803 3.220736e-06 1.858200e-15 0 
    0.023174 3.427532e-06 1.914700e-15 0 
    0.023496 5.247534e-06 2.851600e-15 0 
    0.023933 8.932446e-06 4.678400e-15 0 
    0.024547 1.153371e-05 5.742400e-15 0 
    0.025119 1.109130e-05 5.273500e-15 0 
    0.025763 1.216090e-05 5.496600e-15 0 
    0.026242 1.030301e-05 4.488400e-15 0 
    0.026546 1.218902e-05 5.189100e-15 0 
    0.026977 1.309068e-05 5.396300e-15 0 
    0.027479 1.333448e-05 5.297800e-15 0 
    0.027990 1.352009e-05 5.177200e-15 0 
    0.028510 1.370794e-05 5.059400e-15 0 
    0.029040 1.402697e-05 4.989900e-15 0 
    0.029648 1.364478e-05 4.656900e-15 0 
    0.030269 1.405958e-05 4.603600e-15 0 
    0.030761 1.399519e-05 4.437100e-15 0 
    0.031477 1.448651e-05 4.386300e-15 0 
    0.032509 1.523991e-05 4.326100e-15 0 
    0.033497 1.559499e-05 4.169600e-15 0 
    0.034514 1.581141e-05 3.982000e-15 0 
    0.035563 1.599458e-05 3.794000e-15 0 
    0.036475 1.632920e-05 3.682100e-15 0 
    0.037411 1.694242e-05 3.631600e-15 0 
    0.038282 1.705953e-05 3.492200e-15 0 
    0.039355 1.659505e-05 3.214400e-15 0 
    0.040365 1.761907e-05 3.244100e-15 0 
    0.041400 1.819597e-05 3.184900e-15 0 
    0.042267 1.828006e-05 3.069700e-15 0 
    0.043152 1.819577e-05 2.931500e-15 0 
    0.043954 1.819579e-05 2.825500e-15 0 
    0.045082 1.870609e-05 2.761200e-15 0 
    0.046026 1.870611e-05 2.649100e-15 0 
    0.046989 1.857636e-05 2.524000e-15 0 
    0.047973 1.870508e-05 2.438300e-15 0 
    0.049091 1.922960e-05 2.393800e-15 0 
    0.050119 1.879247e-05 2.244400e-15 0 
    0.051050 1.949712e-05 2.244400e-15 0 
    0.051642 1.905408e-05 2.143400e-15 0 
    0.052360 2.089167e-05 2.286100e-15 0 
    0.053088 2.079556e-05 2.213600e-15 0 
    0.054200 2.055760e-05 2.099400e-15 0 
    0.055208 1.963269e-05 1.932400e-15 0 
    0.056234 1.954173e-05 1.853900e-15 0 
    0.057148 2.084402e-05 1.914700e-15 0 
    0.058210 2.177614e-05 1.928000e-15 0 
    0.059293 2.167639e-05 1.849700e-15 0 
    0.060256 2.202797e-05 1.820100e-15 0 
    0.061235 2.093971e-05 1.675300e-15 0 
    0.062373 1.892156e-05 1.459100e-15 0 
    0.063387 2.254049e-05 1.683000e-15 0 
    0.064417 2.212955e-05 1.599900e-15 0 
    0.065313 2.301250e-05 1.618400e-15 0 
    0.066374 2.285430e-05 1.556300e-15 0 
    0.067298 2.228278e-05 1.476000e-15 0 
    0.067920 2.338701e-05 1.520900e-15 0 
    0.069024 2.398673e-05 1.510400e-15 0 
    0.069984 2.254113e-05 1.380700e-15 0 
    0.070958 2.409769e-05 1.435800e-15 0 
    0.071945 2.223128e-05 1.288500e-15 0 
    0.073114 2.471654e-05 1.387100e-15 0 
    0.074131 2.500226e-05 1.364900e-15 0 
    0.075162 2.529203e-05 1.343100e-15 0 
    0.076033 2.488728e-05 1.291500e-15 0 
    0.077090 2.494420e-05 1.259200e-15 0 
    0.078163 2.280252e-05 1.119700e-15 0 
    0.079250 2.535044e-05 1.210900e-15 0 
    0.080168 2.420802e-05 1.130000e-15 0 
    0.081283 2.535078e-05 1.151100e-15 0 
    0.082224 2.588029e-05 1.148400e-15 0 
    0.083176 2.605873e-05 1.130000e-15 0 
    0.084333 2.648292e-05 1.117100e-15 0 
    0.085310 2.354901e-05 9.707200e-16 0 
    0.086298 2.648276e-05 1.066800e-15 0 
    0.087297 2.636277e-05 1.037800e-15 0 
    0.088308 2.697693e-05 1.037800e-15 0 
    0.089331 2.728904e-05 1.025900e-15 0 
    0.090365 2.741543e-05 1.007200e-15 0 
    0.091411 2.766746e-05 9.933300e-16 0 
    0.092470 2.754067e-05 9.662600e-16 0 
    0.093541 2.917223e-05 1.000200e-15 0 
    0.094406 5.357597e-05 1.803400e-15 0 
    0.095499 7.997684e-05 2.630800e-15 0 
    0.096605 1.051900e-04 3.381400e-15 0 
    0.097499 1.227358e-04 3.873400e-15 0 
    0.098628 1.333443e-04 4.112400e-15 0 
    0.099541 6.309345e-05 1.910300e-15 0 
    0.100693 1.134935e-04 3.358100e-15 0 
    0.101625 1.129741e-04 3.281700e-15 0 
    0.102565 1.405942e-04 4.009500e-15 0 
    0.103753 1.448675e-04 4.037300e-15 0 
    0.104713 9.839457e-05 2.692100e-15 0 
    0.105682 1.294115e-04 3.476100e-15 0 
    0.106660 1.786391e-04 4.710800e-15 0 
    0.107895 1.761876e-04 4.540400e-15 0 
    0.108893 1.520472e-04 3.846800e-15 0 
    0.109901 1.694254e-04 4.208200e-15 0 
    0.110918 1.455381e-04 3.548900e-15 0 
    0.111944 1.782266e-04 4.266700e-15 0 
    0.112980 1.729715e-04 4.065300e-15 0 
    0.114025 1.709897e-04 3.945400e-15 0 
    0.114815 1.538044e-04 3.500200e-15 0 
    0.115878 1.836419e-04 4.102900e-15 0 
    0.116950 1.765922e-04 3.873400e-15 0 
    0.118032 1.811241e-04 3.900300e-15 0 
    0.119124 1.819604e-04 3.846800e-15 0 
    0.119950 1.315159e-04 2.742200e-15 0 
    0.121060 1.782258e-04 3.648300e-15 0 
    0.122180 1.513496e-04 3.041600e-15 0 
    0.123027 1.294097e-04 2.565000e-15 0 
    0.124165 1.035094e-04 2.014200e-15 0 
    0.125026 1.541631e-04 2.958700e-15 0 
    0.126183 1.900998e-04 3.581800e-15 0 
    0.127057 1.990545e-04 3.699100e-15 0 
    0.128233 1.958719e-04 3.573500e-15 0 
    0.129122 1.861984e-04 3.350400e-15 0 
    0.130317 2.147723e-04 3.794000e-15 0 
    0.131220 2.212946e-04 3.855600e-15 0 
    0.132434 1.914122e-04 3.274100e-15 0 
    0.133352 1.927414e-04 3.251600e-15 0 
    0.134277 2.238584e-04 3.724700e-15 0 
    0.135519 2.177585e-04 3.557100e-15 0 
    0.136458 2.027555e-04 3.266600e-15 0 
    0.137404 2.269737e-04 3.606600e-15 0 
    0.138357 2.228333e-04 3.492200e-15 0 
    0.139316 2.074817e-04 3.207000e-15 0 
    0.140605 2.128018e-04 3.229200e-15 0 
    0.141579 2.137825e-04 3.199600e-15 0 
    0.142561 1.733742e-04 2.559200e-15 0 
    0.143549 1.733678e-04 2.524000e-15 0 
    0.144544 2.055798e-04 2.951900e-15 0 
    0.145546 2.055801e-04 2.911400e-15 0 
    0.146555 2.118268e-04 2.958700e-15 0 
    0.147231 2.177596e-04 3.013700e-15 0 
    0.147911 2.202789e-04 3.020600e-15 0 
    0.148594 2.147739e-04 2.918100e-15 0 
    0.149624 2.046352e-04 2.742200e-15 0 
    0.150661 2.074816e-04 2.742200e-15 0 
    0.151705 2.118246e-04 2.761200e-15 0 
    0.152757 2.132947e-04 2.742200e-15 0 
    0.153815 2.051004e-04 2.600700e-15 0 
    0.154525 1.892250e-04 2.377400e-15 0 
    0.154882 1.976887e-04 2.472300e-15 0 
    0.155955 1.963269e-04 2.421600e-15 0 
    0.156675 1.725740e-04 2.109100e-15 0 
    0.157761 1.690346e-04 2.037500e-15 0 
    0.158855 1.670972e-04 1.986500e-15 0 
    0.159956 1.815407e-04 2.128600e-15 0 
    0.161065 1.936306e-04 2.239200e-15 0 
    0.161808 1.999768e-04 2.291400e-15 0 
    0.162930 2.041667e-04 2.307300e-15 0 
    0.164059 2.013627e-04 2.244400e-15 0 
    0.164816 2.004364e-04 2.213600e-15 0 
    0.165959 1.967812e-04 2.143400e-15 0 
    0.167109 2.079606e-04 2.234100e-15 0 
    0.167880 2.098840e-04 2.234100e-15 0 
    0.169044 2.036888e-04 2.138400e-15 0 
    0.170216 2.157656e-04 2.234100e-15 0 
    0.171002 1.981417e-04 2.032800e-15 0 
    0.171396 2.233404e-04 2.280800e-15 0 
    0.172187 2.269780e-04 2.296700e-15 0 
    0.172982 2.167606e-04 2.173200e-15 0 
    0.174181 2.127979e-04 2.104200e-15 0 
    0.175388 2.041604e-04 1.991100e-15 0 
    0.176198 2.027597e-04 1.959300e-15 0 
    0.177419 2.157573e-04 2.056300e-15 0 
    0.178238 2.127979e-04 2.009500e-15 0 
    0.179473 2.228326e-04 2.075400e-15 0 
    0.180302 2.123151e-04 1.959300e-15 0 
    0.181552 2.132915e-04 1.941300e-15 0 
    0.182390 2.187691e-04 1.972900e-15 0 
    0.183231 2.285467e-04 2.042200e-15 0 
    0.184502 2.296065e-04 2.023500e-15 0 
    0.185353 2.147692e-04 1.875400e-15 0 
    0.186638 2.207879e-04 1.901500e-15 0 
    0.187499 2.157633e-04 1.841200e-15 0 
    0.188365 2.018299e-04 1.706500e-15 0 
    0.189671 2.041586e-04 1.702500e-15 0 
    0.190546 2.098832e-04 1.734200e-15 0 
    0.191426 2.228316e-04 1.824300e-15 0 
    0.192753 2.084324e-04 1.683000e-15 0 
    0.193642 2.027600e-04 1.622200e-15 0 
    0.194536 2.147661e-04 1.702500e-15 0 
    0.195434 2.074850e-04 1.629700e-15 0 
    0.196789 2.032207e-04 1.574300e-15 0 
    0.197697 2.108457e-04 1.618400e-15 0 
    0.198610 2.207920e-04 1.679200e-15 0 
    0.199526 2.070020e-04 1.559900e-15 0 
    0.200909 2.269692e-04 1.686900e-15 0 
    0.201837 2.327915e-04 1.714300e-15 0 
    0.202768 2.248983e-04 1.641000e-15 0 
    0.203704 2.212945e-04 1.599900e-15 0 
    0.204645 2.280203e-04 1.633400e-15 0 
    0.206063 2.259259e-04 1.596200e-15 0 
    0.207014 2.322587e-04 1.625900e-15 0 
    0.207970 2.243745e-04 1.556300e-15 0 
    0.208930 2.327948e-04 1.599900e-15 0 
    0.209894 2.152698e-04 1.465900e-15 0 
    0.210863 2.212933e-04 1.493100e-15 0 
    0.211836 2.432048e-04 1.625900e-15 0 
    0.212324 2.593988e-04 1.726200e-15 0 
    0.212814 2.831216e-04 1.875400e-15 0 
    0.213796 2.691330e-04 1.766400e-15 0 
    0.215278 2.728771e-04 1.766400e-15 0 
    0.216272 2.863946e-04 1.836900e-15 0 
    0.217270 2.811762e-04 1.786900e-15 0 
    0.218273 2.710098e-04 1.706500e-15 0 
    0.219281 2.937461e-04 1.832700e-15 0 
    0.220293 2.998931e-04 1.853900e-15 0 
    0.221309 2.844297e-04 1.742200e-15 0 
    0.222331 2.850855e-04 1.730200e-15 0 
    0.223357 3.097235e-04 1.862500e-15 0 
    0.224388 3.147544e-04 1.875400e-15 0 
    0.225424 3.118746e-04 1.841200e-15 0 
    0.226464 2.805341e-04 1.641000e-15 0 
    0.227510 2.964686e-04 1.718300e-15 0 
    0.228560 3.451301e-04 1.982000e-15 0 
    0.229615 3.357228e-04 1.910300e-15 0 
    0.230144 2.950574e-04 1.671200e-15 0 
    0.231207 2.886839e-04 1.620100e-15 0 
    0.232274 3.033497e-04 1.686800e-15 0 
    0.233346 3.559964e-04 1.961400e-15 0 
    0.234423 3.154734e-04 1.722200e-15 0 
    0.235505 3.519287e-04 1.903600e-15 0 
    0.236592 3.198642e-04 1.714300e-15 0 
    0.237684 2.700587e-04 1.434100e-15 0 
    0.238781 2.811667e-04 1.479400e-15 0 
    0.239332 2.464368e-04 1.290700e-15 0 
    0.240436 3.163720e-04 1.641800e-15 0 
    0.241546 2.568518e-04 1.320700e-15 0 
    0.242661 2.826057e-04 1.439800e-15 0 
    0.243781 2.374988e-04 1.198900e-15 0 
    0.244906 2.619081e-04 1.310000e-15 0 
    0.245471 2.593419e-04 1.291200e-15 0 
    0.246604 2.743704e-04 1.353500e-15 0 
    0.247742 3.563087e-04 1.741600e-15 0 
    0.248886 3.591734e-04 1.739500e-15 0 
    0.250035 4.080934e-04 1.958300e-15 0 
    0.250611 4.260751e-04 2.035200e-15 0 
    0.251768 3.784000e-04 1.790900e-15 0 
    0.252930 3.527077e-04 1.654000e-15 0 
    0.254097 2.721857e-04 1.264700e-15 0 
    0.254683 2.868045e-04 1.326500e-15 0 
    0.255859 3.908846e-04 1.791300e-15 0 
    0.257040 2.609087e-04 1.184700e-15 0 
    0.258226 2.517195e-04 1.132500e-15 0 
    0.258821 3.233302e-04 1.448000e-15 0 
    0.260016 3.312131e-04 1.469700e-15 0 
    0.261216 5.327694e-04 2.342400e-15 0 
    0.261818 4.199977e-04 1.838100e-15 0 
    0.263027 5.208111e-04 2.258400e-15 0 
    0.264241 4.754501e-04 2.042800e-15 0 
    0.264850 4.424078e-04 1.892100e-15 0 
    0.266072 4.029376e-04 1.707500e-15 0 
    0.267301 3.790175e-04 1.591400e-15 0 
    0.267917 4.702994e-04 1.965600e-15 0 
    0.269154 7.723000e-04 3.198200e-15 0 
    0.270396 1.000443e-03 4.105000e-15 0 
    0.271019 1.445081e-03 5.902200e-15 0 
    0.272270 9.001227e-04 3.642700e-15 0 
    0.273527 1.020230e-03 4.090900e-15 0 
    0.274157 1.206151e-03 4.814200e-15 0 
    0.275423 8.705444e-04 3.442800e-15 0 
    0.276058 1.092671e-03 4.301400e-15 0 
    0.277332 7.996137e-04 3.118900e-15 0 
    0.278612 6.099227e-04 2.357200e-15 0 
    0.279254 7.851568e-04 3.020500e-15 0 
    0.280543 5.038916e-04 1.920700e-15 0 
    0.281190 6.546815e-04 2.484000e-15 0 
    0.282488 8.460605e-04 3.180700e-15 0 
    0.283792 8.949102e-04 3.333500e-15 0 
    0.284446 5.787188e-04 2.145800e-15 0 
    0.285759 3.356152e-04 1.233000e-15 0 
    0.286418 3.832688e-04 1.401600e-15 0 
    0.287740 8.107218e-04 2.937600e-15 0 
    0.288403 1.144312e-03 4.127300e-15 0 
    0.289734 1.061467e-03 3.793400e-15 0 
    0.290402 7.321257e-04 2.604400e-15 0 
    0.291743 4.623107e-04 1.629500e-15 0 
    0.292415 1.038961e-03 3.645200e-15 0 
    0.293765 1.537943e-03 5.346400e-15 0 
    0.294442 1.408031e-03 4.872300e-15 0 
    0.295801 1.836325e-03 6.296100e-15 0 
    0.297167 2.566149e-03 8.717700e-15 0 
    0.299227 2.229824e-03 7.471200e-15 0 
    0.301301 2.038214e-03 6.735500e-15 0 
    0.303389 2.139062e-03 6.971800e-15 0 
    0.305492 2.198808e-03 7.068200e-15 0 
    0.307610 2.173385e-03 6.890600e-15 0 
    0.309742 2.421464e-03 7.571800e-15 0 
    0.311889 2.546912e-03 7.854800e-15 0 
    0.313329 2.912691e-03 8.900500e-15 0 
    0.315501 2.832768e-03 8.537500e-15 0 
    0.317687 3.492343e-03 1.038100e-14 0 
    0.319890 3.198994e-03 9.378500e-15 0 
    0.322107 3.280183e-03 9.484600e-15 0 
    0.323594 3.691136e-03 1.057500e-14 0 
    0.325837 3.162373e-03 8.935800e-15 0 
    0.328095 3.538909e-03 9.862600e-15 0 
    0.330370 2.962868e-03 8.143900e-15 0 
    0.331894 4.425238e-03 1.205200e-14 0 
    0.334195 5.318129e-03 1.428500e-14 0 
    0.336512 5.279264e-03 1.398600e-14 0 
    0.338065 4.861809e-03 1.276200e-14 0 
    0.339625 4.644949e-03 1.208100e-14 0 
    0.340408 4.737849e-03 1.226600e-14 0 
    0.341193 4.113247e-03 1.060000e-14 0 
    0.341979 5.429582e-03 1.392800e-14 0 
    0.342768 5.337958e-03 1.363000e-14 0 
    0.343558 3.555953e-03 9.038100e-15 0 
    0.344350 4.222129e-03 1.068200e-14 0 
    0.345144 5.094950e-03 1.283100e-14 0 
    0.345939 4.928565e-03 1.235500e-14 0 
    0.346737 5.167738e-03 1.289500e-14 0 
    0.347536 6.066038e-03 1.506700e-14 0 
    0.348337 5.063867e-03 1.252000e-14 0 
    0.349140 4.227448e-03 1.040400e-14 0 
    0.349945 5.403001e-03 1.323600e-14 0 
    0.350752 6.283808e-03 1.532300e-14 0 
    0.351560 4.850670e-03 1.177400e-14 0 
    0.352371 4.553970e-03 1.100300e-14 0 
    0.353183 5.211563e-03 1.253400e-14 0 
    0.353997 4.370530e-03 1.046300e-14 0 
    0.354813 5.822517e-03 1.387500e-14 0 
    0.355631 4.546298e-03 1.078400e-14 0 
    0.356451 5.311843e-03 1.254200e-14 0 
    0.357273 4.850897e-03 1.140100e-14 0 
    0.358096 6.315035e-03 1.477400e-14 0 
    0.358922 5.481933e-03 1.276600e-14 0 
    0.359749 6.614623e-03 1.533300e-14 0 
    0.360579 4.385914e-03 1.012000e-14 0 
    0.361410 6.275286e-03 1.441300e-14 0 
    0.362243 6.356296e-03 1.453200e-14 0 
    0.363078 6.648846e-03 1.513100e-14 0 
    0.363915 5.933490e-03 1.344100e-14 0 
    0.364754 4.590513e-03 1.035100e-14 0 
    0.365200 5.593582e-03 1.258200e-14 1 
    0.365400 5.426582e-03 1.219300e-14 1 
    0.365600 5.362128e-03 1.203500e-14 1 
    0.365800 4.967460e-03 1.113700e-14 1 
    0.366000 4.876445e-03 1.092100e-14 1 
    0.366200 4.635028e-03 1.036900e-14 1 
    0.366400 4.905905e-03 1.096300e-14 1 
    0.366600 5.181845e-03 1.156700e-14 1 
    0.366800 5.496050e-03 1.225500e-14 1 
    0.367000 5.570737e-03 1.240800e-14 1 
    0.367200 5.397479e-03 1.200900e-14 1 
    0.367400 5.914045e-03 1.314400e-14 1 
    0.367600 6.112369e-03 1.357000e-14 1 
    0.367800 6.616390e-03 1.467300e-14 1 
    0.368000 6.386145e-03 1.414700e-14 1 
    0.368200 6.253449e-03 1.383800e-14 1 
    0.368400 6.224506e-03 1.375900e-14 1 
    0.368600 5.938248e-03 1.311200e-14 1 
    0.368800 6.102017e-03 1.345900e-14 1 
    0.369000 6.404106e-03 1.411000e-14 1 
    0.369200 6.506920e-03 1.432100e-14 1 
    0.369400 6.499417e-03 1.428900e-14 1 
    0.369600 7.006883e-03 1.538800e-14 1 
    0.369800 7.431106e-03 1.630200e-14 1 
    0.370000 7.537714e-03 1.651800e-14 1 
    0.370200 7.176292e-03 1.570900e-14 1 
    0.370400 7.032218e-03 1.537700e-14 1 
    0.370600 6.991744e-03 1.527200e-14 1 
    0.370800 6.717432e-03 1.465700e-14 1 
    0.371000 6.652648e-03 1.450000e-14 1 
    0.371200 6.927594e-03 1.508300e-14 1 
    0.371400 6.335950e-03 1.378000e-14 1 
    0.371600 6.388344e-03 1.387900e-14 1 
    0.371800 6.540831e-03 1.419500e-14 1 
    0.372000 7.250860e-03 1.571900e-14 1 
    0.372200 7.418895e-03 1.606600e-14 1 
    0.372400 7.635817e-03 1.651800e-14 1 
    0.372600 7.288615e-03 1.575000e-14 1 
    0.372800 6.904982e-03 1.490500e-14 1 
    0.373000 7.090013e-03 1.528800e-14 1 
    0.373200 7.966251e-03 1.715900e-14 1 
    0.373400 8.895478e-03 1.914000e-14 1 
    0.373600 8.809633e-03 1.893500e-14 1 
    0.373800 9.325808e-03 2.002300e-14 1 
    0.374000 9.666365e-03 2.073200e-14 1 
    0.374200 1.030495e-02 2.207800e-14 1 
    0.374400 9.392683e-03 2.010200e-14 1 
    0.374600 9.129555e-03 1.951800e-14 1 
    0.374800 8.074038e-03 1.724300e-14 1 
    0.375000 8.446875e-03 1.802000e-14 1 
    0.375200 8.532375e-03 1.818300e-14 1 
    0.375400 8.576705e-03 1.825800e-14 1 
    0.375600 8.681778e-03 1.846200e-14 1 
    0.375800 8.708443e-03 1.849900e-14 1 
    0.376000 9.054662e-03 1.921400e-14 1 
    0.376200 8.320339e-03 1.763700e-14 1 
    0.376400 7.574523e-03 1.603900e-14 1 
    0.376600 7.336740e-03 1.551900e-14 1 
    0.376800 8.051112e-03 1.701200e-14 1 
    0.377000 9.070199e-03 1.914500e-14 1 
    0.377200 9.287080e-03 1.958200e-14 1 
    0.377400 9.022038e-03 1.900300e-14 1 
    0.377600 8.716973e-03 1.834100e-14 1 
    0.377800 8.588711e-03 1.805200e-14 1 
    0.378000 9.128382e-03 1.916600e-14 1 
    0.378200 8.399029e-03 1.761600e-14 1 
    0.378400 8.660878e-03 1.814600e-14 1 
    0.378600 8.356603e-03 1.749000e-14 1 
    0.378800 8.950871e-03 1.871400e-14 1 
    0.379000 9.109234e-03 1.902500e-14 1 
    0.379200 9.025385e-03 1.883000e-14 1 
    0.379400 9.022432e-03 1.880400e-14 1 
    0.379600 8.428665e-03 1.754800e-14 1 
    0.379800 8.404371e-03 1.747900e-14 1 
    0.380000 8.253904e-03 1.714800e-14 1 
    0.380200 8.285723e-03 1.719600e-14 1 
    0.380400 8.284314e-03 1.717500e-14 1 
    0.380600 8.044356e-03 1.666000e-14 1 
    0.380800 7.859468e-03 1.626000e-14 1 
    0.381000 7.275470e-03 1.503600e-14 1 
    0.381200 7.201734e-03 1.486800e-14 1 
    0.381400 7.344091e-03 1.514600e-14 1 
    0.381600 7.094536e-03 1.461600e-14 1 
    0.381800 6.662232e-03 1.371100e-14 1 
    0.382000 6.301485e-03 1.295500e-14 1 
    0.382200 6.855873e-03 1.408000e-14 1 
    0.382400 7.423597e-03 1.523000e-14 1 
    0.382600 7.446979e-03 1.526200e-14 1 
    0.382800 7.215913e-03 1.477300e-14 1 
    0.383000 6.840597e-03 1.399000e-14 1 
    0.383200 7.241280e-03 1.479400e-14 1 
    0.383400 7.493344e-03 1.529300e-14 1 
    0.383600 7.370201e-03 1.502600e-14 1 
    0.383800 7.055296e-03 1.436900e-14 1 
    0.384000 7.462748e-03 1.518300e-14 1 
    0.384200 7.966984e-03 1.619200e-14 1 
    0.384400 7.928982e-03 1.609800e-14 1 
    0.384600 7.884971e-03 1.599200e-14 1 
    0.384800 8.202149e-03 1.661800e-14 1 
    0.385000 9.158328e-03 1.853600e-14 1 
    0.385200 9.388437e-03 1.898200e-14 1 
    0.385400 9.549197e-03 1.928700e-14 1 
    0.385600 9.580422e-03 1.933000e-14 1 
    0.385800 9.756570e-03 1.966500e-14 1 
    0.386000 1.053451e-02 2.121100e-14 1 
    0.386200 1.061852e-02 2.135800e-14 1 
    0.386400 1.107694e-02 2.225700e-14 1 
    0.386600 1.046765e-02 2.101100e-14 1 
    0.386800 9.878031e-03 1.980700e-14 1 
    0.387000 8.807416e-03 1.764200e-14 1 
    0.387200 8.278294e-03 1.656500e-14 1 
    0.387400 8.297354e-03 1.658600e-14 1 
    0.387600 8.308428e-03 1.659100e-14 1 
    0.387800 8.346079e-03 1.664900e-14 1 
    0.388000 8.172533e-03 1.628600e-14 1 
    0.388200 8.136252e-03 1.619700e-14 1 
    0.388400 8.229619e-03 1.636600e-14 1 
    0.388600 8.729382e-03 1.734200e-14 1 
    0.388800 9.032639e-03 1.792600e-14 1 
    0.389000 9.063119e-03 1.796800e-14 1 
    0.389200 8.783121e-03 1.739500e-14 1 
    0.389400 8.252844e-03 1.632800e-14 1 
    0.389600 7.724499e-03 1.526700e-14 1 
    0.389800 7.508568e-03 1.482500e-14 1 
    0.390000 7.524387e-03 1.484100e-14 1 
    0.390200 7.273779e-03 1.433200e-14 1 
    0.390400 6.717820e-03 1.322300e-14 1 
    0.390600 6.267508e-03 1.232400e-14 1 
    0.390800 6.351818e-03 1.247700e-14 1 
    0.391000 6.111673e-03 1.199300e-14 1 
    0.391200 6.286778e-03 1.232400e-14 1 
    0.391400 6.126737e-03 1.199800e-14 1 
    0.391600 6.428455e-03 1.257600e-14 1 
    0.391800 6.564481e-03 1.282900e-14 1 
    0.392000 6.482060e-03 1.265500e-14 1 
    0.392200 6.722996e-03 1.311200e-14 1 
    0.392400 6.851497e-03 1.334900e-14 1 
    0.392600 6.804536e-03 1.324400e-14 1 
    0.392800 7.035708e-03 1.368000e-14 1 
    0.393000 7.413552e-03 1.440000e-14 1 
    0.393200 7.721551e-03 1.498300e-14 1 
    0.393400 7.469405e-03 1.447900e-14 1 
    0.393600 7.229645e-03 1.400000e-14 1 
    0.393800 7.049866e-03 1.363800e-14 1 
    0.394000 7.649512e-03 1.478300e-14 1 
    0.394200 8.063376e-03 1.556700e-14 1 
    0.394400 8.512808e-03 1.641800e-14 1 
    0.394600 7.913140e-03 1.524600e-14 1 
    0.394800 7.489411e-03 1.441500e-14 1 
    0.395000 7.562532e-03 1.454100e-14 1 
    0.395200 7.756570e-03 1.489900e-14 1 
    0.395400 7.619547e-03 1.462100e-14 1 
    0.395600 7.292348e-03 1.397900e-14 1 
    0.395800 7.519567e-03 1.440000e-14 1 
    0.396000 8.183704e-03 1.565600e-14 1 
    0.396200 8.551967e-03 1.634400e-14 1 
    0.396400 8.340617e-03 1.592400e-14 1 
    0.396600 8.202755e-03 1.564500e-14 1 
    0.396800 8.230449e-03 1.568200e-14 1 
    0.397000 8.324382e-03 1.584500e-14 1 
    0.397200 8.534715e-03 1.622900e-14 1 
    0.397400 9.627216e-03 1.828800e-14 1 
    0.397600 1.030772e-02 1.956100e-14 1 
    0.397800 1.101648e-02 2.088500e-14 1 
    0.398000 1.121025e-02 2.123100e-14 1 
    0.398200 1.169140e-02 2.212000e-14 1 
    0.398400 1.176134e-02 2.223000e-14 1 
    0.398600 1.142520e-02 2.157300e-14 1 
    0.398800 1.153740e-02 2.176300e-14 1 
    0.399000 1.180794e-02 2.225100e-14 1 
    0.399200 1.200676e-02 2.260300e-14 1 
    0.399400 1.212780e-02 2.280800e-14 1 
    0.399600 1.210056e-02 2.273400e-14 1 
    0.399800 1.232846e-02 2.313900e-14 1 
    0.400000 1.218667e-02 2.285000e-14 1 
    0.400200 1.189348e-02 2.227800e-14 1 
    0.400400 1.159916e-02 2.170500e-14 1 
    0.400600 1.096134e-02 2.049100e-14 1 
    0.400800 1.027725e-02 1.919300e-14 1 
    0.401000 9.318418e-03 1.738500e-14 1 
    0.401200 8.972527e-03 1.672300e-14 1 
    0.401400 8.109268e-03 1.509900e-14 1 
    0.401600 7.260941e-03 1.350600e-14 1 
    0.401800 6.487866e-03 1.205600e-14 1 
    0.402000 6.647311e-03 1.234000e-14 1 
    0.402200 7.461673e-03 1.383800e-14 1 
    0.402400 7.993195e-03 1.480900e-14 1 
    0.402600 8.597622e-03 1.591300e-14 1 
    0.402800 9.061001e-03 1.675400e-14 1 
    0.403000 1.023393e-02 1.890400e-14 1 
    0.403200 1.091334e-02 2.013900e-14 1 
    0.403400 1.157130e-02 2.133200e-14 1 
    0.403600 1.156812e-02 2.130500e-14 1 
    0.403800 1.209701e-02 2.225700e-14 1 
    0.404000 1.216558e-02 2.236100e-14 1 
    0.404200 1.198321e-02 2.200400e-14 1 
    0.404400 1.132783e-02 2.078000e-14 1 
    0.404600 1.049543e-02 1.923400e-14 1 
    0.404800 1.012182e-02 1.853100e-14 1 
    0.405000 9.168997e-03 1.677000e-14 1 
    0.405200 9.017153e-03 1.647600e-14 1 
    0.405400 8.559304e-03 1.562400e-14 1 
    0.405600 8.510173e-03 1.551900e-14 1 
    0.405800 8.250698e-03 1.503100e-14 1 
    0.406000 8.798396e-03 1.601300e-14 1 
    0.406200 1.041415e-02 1.893500e-14 1 
    0.406400 1.247020e-02 2.265100e-14 1 
    0.406600 1.417043e-02 2.571400e-14 1 
    0.406800 1.482260e-02 2.687100e-14 1 
    0.407000 1.546389e-02 2.800600e-14 1 
    0.407200 1.541497e-02 2.789000e-14 1 
    0.407400 1.604644e-02 2.900400e-14 1 
    0.407600 1.650413e-02 2.980200e-14 1 
    0.407800 1.733354e-02 3.126900e-14 1 
    0.408000 1.756029e-02 3.164700e-14 1 
    0.408200 1.765915e-02 3.179400e-14 1 
    0.408400 1.759752e-02 3.165200e-14 1 
    0.408600 1.804160e-02 3.241900e-14 1 
    0.408800 1.836677e-02 3.297100e-14 1 
    0.409000 1.850518e-02 3.318700e-14 1 
    0.409200 1.824421e-02 3.268700e-14 1 
    0.409400 1.804192e-02 3.229300e-14 1 
    0.409600 1.870045e-02 3.343900e-14 1 
    0.409800 1.902156e-02 3.398000e-14 1 
    0.410000 1.916956e-02 3.421100e-14 1 
    0.410200 1.946534e-02 3.470500e-14 1 
    0.410400 2.006822e-02 3.574500e-14 1 
    0.410600 1.980174e-02 3.523600e-14 1 
    0.410800 1.955496e-02 3.476300e-14 1 
    0.411000 1.926319e-02 3.421100e-14 1 
    0.411200 1.930899e-02 3.425900e-14 1 
    0.411400 1.892158e-02 3.353900e-14 1 
    0.411600 1.811494e-02 3.207800e-14 1 
    0.411800 1.809071e-02 3.200400e-14 1 
    0.412000 1.774278e-02 3.135800e-14 1 
    0.412200 1.811681e-02 3.198800e-14 1 
    0.412400 1.873363e-02 3.304500e-14 1 
    0.412600 1.844764e-02 3.250900e-14 1 
    0.412800 1.850415e-02 3.257700e-14 1 
    0.413000 1.837881e-02 3.232500e-14 1 
    0.413200 1.923663e-02 3.380100e-14 1 
    0.413400 1.935438e-02 3.397500e-14 1 
    0.413600 1.925621e-02 3.377000e-14 1 
    0.413800 1.913386e-02 3.352300e-14 1 
    0.414000 1.900210e-02 3.326000e-14 1 
    0.414200 1.906564e-02 3.333900e-14 1 
    0.414400 1.861754e-02 3.252400e-14 1 
    0.414600 1.784366e-02 3.114200e-14 1 
    0.414800 1.723745e-02 3.005500e-14 1 
    0.415000 1.700320e-02 2.961800e-14 1 
    0.415200 1.759653e-02 3.062200e-14 1 
    0.415400 1.772220e-02 3.081100e-14 1 
    0.415600 1.874394e-02 3.255600e-14 1 
    0.415800 1.954921e-02 3.392200e-14 1 
    0.416000 1.972896e-02 3.420100e-14 1 
    0.416200 1.970521e-02 3.412700e-14 1 
    0.416400 1.942361e-02 3.360700e-14 1 
    0.416600 1.917789e-02 3.315000e-14 1 
    0.416800 1.868151e-02 3.226100e-14 1 
    0.417000 1.896781e-02 3.272400e-14 1 
    0.417200 2.040108e-02 3.516300e-14 1 
    0.417400 2.202582e-02 3.792700e-14 1 
    0.417600 2.262126e-02 3.891500e-14 1 
    0.417800 2.240146e-02 3.850000e-14 1 
    0.418000 2.159006e-02 3.707000e-14 1 
    0.418200 2.103475e-02 3.608200e-14 1 
    0.418400 1.991116e-02 3.412200e-14 1 
    0.418600 1.913234e-02 3.275600e-14 1 
    0.418800 1.884661e-02 3.223600e-14 1 
    0.419000 1.915312e-02 3.272900e-14 1 
    0.419200 1.961776e-02 3.349100e-14 1 
    0.419400 1.925479e-02 3.284000e-14 1 
    0.419600 1.909416e-02 3.253500e-14 1 
    0.419800 1.893320e-02 3.223000e-14 1 
    0.420000 1.958804e-02 3.331300e-14 1 
    0.420200 1.988804e-02 3.379100e-14 1 
    0.420400 2.060626e-02 3.497800e-14 1 
    0.420600 2.119668e-02 3.594600e-14 1 
    0.420800 2.153617e-02 3.648700e-14 1 
    0.421000 2.071770e-02 3.506700e-14 1 
    0.421200 1.936779e-02 3.275100e-14 1 
    0.421400 1.924886e-02 3.251900e-14 1 
    0.421600 1.940459e-02 3.275100e-14 1 
    0.421800 2.014593e-02 3.397000e-14 1 
    0.422000 1.961298e-02 3.304000e-14 1 
    0.422200 1.937846e-02 3.261400e-14 1 
    0.422400 1.907507e-02 3.207300e-14 1 
    0.422600 1.900860e-02 3.193100e-14 1 
    0.422800 1.881626e-02 3.157800e-14 1 
    0.423000 1.818873e-02 3.049600e-14 1 
    0.423200 1.843160e-02 3.087400e-14 1 
    0.423400 1.845559e-02 3.088500e-14 1 
    0.423600 1.869913e-02 3.126300e-14 1 
    0.423800 1.835458e-02 3.065800e-14 1 
    0.424000 1.798179e-02 3.000700e-14 1 
    0.424200 1.808994e-02 3.015900e-14 1 
    0.424400 1.882986e-02 3.136300e-14 1 
    0.424600 1.938125e-02 3.225100e-14 1 
    0.424800 1.949757e-02 3.241400e-14 1 
    0.425000 1.887050e-02 3.134200e-14 1 
    0.425200 1.920164e-02 3.186200e-14 1 
    0.425400 1.946401e-02 3.226700e-14 1 
    0.425600 1.957409e-02 3.241900e-14 1 
    0.425800 1.956409e-02 3.237200e-14 1 
    0.426000 1.946451e-02 3.217700e-14 1 
    0.426200 1.955303e-02 3.229300e-14 1 
    0.426400 1.978775e-02 3.265000e-14 1 
    0.426600 2.003622e-02 3.302900e-14 1 
    0.426800 2.023960e-02 3.333300e-14 1 
    0.427000 1.995895e-02 3.284000e-14 1 
    0.427200 1.983043e-02 3.259800e-14 1 
    0.427400 1.974001e-02 3.241900e-14 1 
    0.427600 1.953116e-02 3.204600e-14 1 
    0.427800 1.939875e-02 3.179900e-14 1 
    0.428000 1.965442e-02 3.218800e-14 1 
    0.428200 1.978525e-02 3.237200e-14 1 
    0.428400 2.003559e-02 3.275100e-14 1 
    0.428600 2.035986e-02 3.325000e-14 1 
    0.428800 2.029183e-02 3.310800e-14 1 
    0.429000 2.007212e-02 3.271900e-14 1 
    0.429200 1.967145e-02 3.203600e-14 1 
    0.429400 1.965107e-02 3.197300e-14 1 
    0.429600 2.010863e-02 3.268700e-14 1 
    0.429800 2.092045e-02 3.397500e-14 1 
    0.430000 2.180094e-02 3.537200e-14 1 
    0.430200 2.179285e-02 3.532600e-14 1 
    0.430400 2.134507e-02 3.456800e-14 1 
    0.430600 2.124871e-02 3.438000e-14 1 
    0.430800 2.135259e-02 3.451600e-14 1 
    0.431000 2.162630e-02 3.492600e-14 1 
    0.431200 2.118030e-02 3.417400e-14 1 
    0.431400 2.116149e-02 3.411200e-14 1 
    0.431600 2.061917e-02 3.320700e-14 1 
    0.431800 2.029522e-02 3.265500e-14 1 
    0.432000 2.020018e-02 3.247200e-14 1 
    0.432200 2.048726e-02 3.290300e-14 1 
    0.432400 2.086271e-02 3.347500e-14 1 
    0.432600 2.110534e-02 3.383300e-14 1 
    0.432800 2.128220e-02 3.408500e-14 1 
    0.433000 2.183684e-02 3.494100e-14 1 
    0.433200 2.223860e-02 3.555100e-14 1 
    0.433400 2.269053e-02 3.624000e-14 1 
    0.433600 2.324793e-02 3.709600e-14 1 
    0.433800 2.327942e-02 3.711200e-14 1 
    0.434000 2.338000e-02 3.723800e-14 1 
    0.434200 2.247713e-02 3.576700e-14 1 
    0.434400 2.207766e-02 3.509900e-14 1 
    0.434600 2.140041e-02 3.399100e-14 1 
    0.434800 2.124429e-02 3.371200e-14 1 
    0.435000 2.118122e-02 3.358100e-14 1 
    0.435200 2.121017e-02 3.359600e-14 1 
    0.435400 2.165810e-02 3.427400e-14 1 
    0.435600 2.233326e-02 3.531000e-14 1 
    0.435800 2.305839e-02 3.642300e-14 1 
    0.436000 2.308970e-02 3.643900e-14 1 
    0.436200 2.241766e-02 3.534600e-14 1 
    0.436400 2.160408e-02 3.403200e-14 1 
    0.436600 2.137735e-02 3.364400e-14 1 
    0.436800 2.149679e-02 3.380100e-14 1 
    0.437000 2.163997e-02 3.399500e-14 1 
    0.437200 2.150305e-02 3.374900e-14 1 
    0.437400 2.193788e-02 3.440000e-14 1 
    0.437600 2.237413e-02 3.505200e-14 1 
    0.437800 2.258562e-02 3.535100e-14 1 
    0.438000 2.182034e-02 3.412200e-14 1 
    0.438200 2.102931e-02 3.285500e-14 1 
    0.438400 2.072562e-02 3.235100e-14 1 
    0.438600 2.050471e-02 3.197700e-14 1 
    0.438800 2.023717e-02 3.153100e-14 1 
    0.439000 1.955669e-02 3.044300e-14 1 
    0.439200 1.874377e-02 2.915100e-14 1 
    0.439400 1.801365e-02 2.799000e-14 1 
    0.439600 1.763776e-02 2.738100e-14 1 
    0.439800 1.725665e-02 2.676500e-14 1 
    0.440000 1.703874e-02 2.640300e-14 1 
    0.440200 1.777378e-02 2.751700e-14 1 
    0.440400 1.938940e-02 2.999100e-14 1 
    0.440600 2.106293e-02 3.255000e-14 1 
    0.440800 2.217858e-02 3.424300e-14 1 
    0.441000 2.276076e-02 3.511000e-14 1 
    0.441200 2.327908e-02 3.587700e-14 1 
    0.441400 2.332422e-02 3.591400e-14 1 
    0.441600 2.368663e-02 3.643900e-14 1 
    0.441800 2.440556e-02 3.751100e-14 1 
    0.442000 2.484249e-02 3.814800e-14 1 
    0.442200 2.553242e-02 3.917200e-14 1 
    0.442400 2.589476e-02 3.969200e-14 1 
    0.442600 2.605923e-02 3.990800e-14 1 
    0.442800 2.567757e-02 3.928800e-14 1 
    0.443000 2.501979e-02 3.824700e-14 1 
    0.443200 2.554131e-02 3.900900e-14 1 
    0.443400 2.553684e-02 3.896700e-14 1 
    0.443600 2.550806e-02 3.888800e-14 1 
    0.443800 2.500322e-02 3.808400e-14 1 
    0.444000 2.530240e-02 3.850500e-14 1 
    0.444200 2.590531e-02 3.938700e-14 1 
    0.444400 2.636510e-02 4.005000e-14 1 
    0.444600 2.637500e-02 4.002900e-14 1 
    0.444800 2.670671e-02 4.049600e-14 1 
    0.445000 2.688321e-02 4.072700e-14 1 
    0.445200 2.758127e-02 4.174700e-14 1 
    0.445400 2.817277e-02 4.260400e-14 1 
    0.445600 2.917168e-02 4.407500e-14 1 
    0.445800 2.968544e-02 4.481100e-14 1 
    0.446000 2.944023e-02 4.440100e-14 1 
    0.446200 2.843135e-02 4.284100e-14 1 
    0.446400 2.732165e-02 4.113200e-14 1 
    0.446600 2.708087e-02 4.073300e-14 1 
    0.446800 2.715104e-02 4.080200e-14 1 
    0.447000 2.700352e-02 4.054400e-14 1 
    0.447200 2.616174e-02 3.924500e-14 1 
    0.447400 2.556130e-02 3.831000e-14 1 
    0.447600 2.475272e-02 3.706500e-14 1 
    0.447800 2.456028e-02 3.674400e-14 1 
    0.448000 2.438554e-02 3.645000e-14 1 
    0.448200 2.472069e-02 3.691800e-14 1 
    0.448400 2.515091e-02 3.752700e-14 1 
    0.448600 2.577641e-02 3.842600e-14 1 
    0.448800 2.644126e-02 3.938200e-14 1 
    0.449000 2.715767e-02 4.041300e-14 1 
    0.449200 2.666195e-02 3.964000e-14 1 
    0.449400 2.678802e-02 3.979200e-14 1 
    0.449600 2.667778e-02 3.959300e-14 1 
    0.449800 2.720800e-02 4.034400e-14 1 
    0.450000 2.718630e-02 4.027600e-14 1 
    0.450200 2.760435e-02 4.085900e-14 1 
    0.450400 2.829020e-02 4.183700e-14 1 
    0.450600 2.897657e-02 4.281400e-14 1 
    0.450800 2.920890e-02 4.311900e-14 1 
    0.451000 2.905312e-02 4.285100e-14 1 
    0.451200 2.896489e-02 4.268300e-14 1 
    0.451400 2.942934e-02 4.332900e-14 1 
    0.451600 3.016242e-02 4.436900e-14 1 
    0.451800 3.013607e-02 4.429100e-14 1 
    0.452000 2.983656e-02 4.381200e-14 1 
    0.452200 2.994612e-02 4.393400e-14 1 
    0.452400 3.009064e-02 4.410700e-14 1 
    0.452600 2.991582e-02 4.381200e-14 1 
    0.452800 2.980968e-02 4.361800e-14 1 
    0.453000 3.032168e-02 4.432800e-14 1 
    0.453200 3.083044e-02 4.503200e-14 1 
    0.453400 3.053012e-02 4.455400e-14 1 
    0.453600 3.093907e-02 4.511100e-14 1 
    0.453800 3.138784e-02 4.572500e-14 1 
    0.454000 3.161820e-02 4.602000e-14 1 
    0.454200 3.138200e-02 4.563600e-14 1 
    0.454400 3.141377e-02 4.564200e-14 1 
    0.454600 3.130710e-02 4.544700e-14 1 
    0.454800 3.124778e-02 4.532100e-14 1 
    0.455000 3.076736e-02 4.458500e-14 1 
    0.455200 3.041730e-02 4.403900e-14 1 
    0.455400 3.001129e-02 4.341300e-14 1 
    0.455600 2.964188e-02 4.284100e-14 1 
    0.455800 2.989644e-02 4.317100e-14 1 
    0.456000 3.003982e-02 4.334000e-14 1 
    0.456200 3.047478e-02 4.392900e-14 1 
    0.456400 3.159578e-02 4.550500e-14 1 
    0.456600 3.252899e-02 4.680800e-14 1 
    0.456800 3.329548e-02 4.786900e-14 1 
    0.457000 3.361773e-02 4.829000e-14 1 
    0.457200 3.404641e-02 4.886300e-14 1 
    0.457400 3.461109e-02 4.963000e-14 1 
    0.457600 3.493872e-02 5.005600e-14 1 
    0.457800 3.404780e-02 4.873700e-14 1 
    0.458000 3.407756e-02 4.873700e-14 1 
    0.458200 3.360695e-02 4.802200e-14 1 
    0.458400 3.463022e-02 4.944100e-14 1 
    0.458600 3.466745e-02 4.945100e-14 1 
    0.458800 3.446194e-02 4.911500e-14 1 
    0.459000 3.428552e-02 4.882100e-14 1 
    0.459200 3.411579e-02 4.853700e-14 1 
    0.459400 3.439737e-02 4.889500e-14 1 
    0.459600 3.464912e-02 4.921000e-14 1 
    0.459800 3.462360e-02 4.913100e-14 1 
    0.460000 3.530969e-02 5.006100e-14 1 
    0.460200 3.578586e-02 5.069200e-14 1 
    0.460400 3.623313e-02 5.128100e-14 1 
    0.460600 3.631978e-02 5.135900e-14 1 
    0.460800 3.702868e-02 5.231600e-14 1 
    0.461000 3.770052e-02 5.321900e-14 1 
    0.461200 3.736455e-02 5.269900e-14 1 
    0.461400 3.646450e-02 5.138500e-14 1 
    0.461600 3.584340e-02 5.046600e-14 1 
    0.461800 3.612043e-02 5.081200e-14 1 
    0.462000 3.635805e-02 5.110200e-14 1 
    0.462200 3.585831e-02 5.035600e-14 1 
    0.462400 3.471694e-02 4.871100e-14 1 
    0.462600 3.314983e-02 4.647200e-14 1 
    0.462800 3.198907e-02 4.480600e-14 1 
    0.463000 3.213320e-02 4.496900e-14 1 
    0.463200 3.252142e-02 4.547300e-14 1 
    0.463400 3.331684e-02 4.654500e-14 1 
    0.463600 3.317295e-02 4.630400e-14 1 
    0.463800 3.311123e-02 4.617800e-14 1 
    0.464000 3.378066e-02 4.707100e-14 1 
    0.464200 3.436789e-02 4.784800e-14 1 
    0.464400 3.515738e-02 4.890500e-14 1 
    0.464600 3.524091e-02 4.897900e-14 1 
    0.464800 3.536199e-02 4.910500e-14 1 
    0.465000 3.549838e-02 4.925200e-14 1 
    0.465200 3.570710e-02 4.949900e-14 1 
    0.465400 3.600278e-02 4.986600e-14 1 
    0.465600 3.653161e-02 5.055500e-14 1 
    0.465800 3.742943e-02 5.175300e-14 1 
    0.466000 3.846195e-02 5.313500e-14 1 
    0.466200 3.854858e-02 5.320900e-14 1 
    0.466400 3.790297e-02 5.227300e-14 1 
    0.466600 3.755448e-02 5.174800e-14 1 
    0.466800 3.739566e-02 5.148500e-14 1 
    0.467000 3.795912e-02 5.221600e-14 1 
    0.467200 3.767005e-02 5.177400e-14 1 
    0.467400 3.778240e-02 5.188400e-14 1 
    0.467600 3.710341e-02 5.090800e-14 1 
    0.467800 3.666247e-02 5.026000e-14 1 
    0.468000 3.602653e-02 4.934600e-14 1 
    0.468200 3.571974e-02 4.888400e-14 1 
    0.468400 3.625049e-02 4.956800e-14 1 
    0.468600 3.706611e-02 5.064000e-14 1 
    0.468800 3.760543e-02 5.133300e-14 1 
    0.469000 3.733325e-02 5.091800e-14 1 
    0.469200 3.717210e-02 5.065500e-14 1 
    0.469400 3.733526e-02 5.083400e-14 1 
    0.469600 3.706129e-02 5.041800e-14 1 
    0.469800 3.672575e-02 4.991900e-14 1 
    0.470000 3.638223e-02 4.941000e-14 1 
    0.470200 3.703962e-02 5.026000e-14 1 
    0.470400 3.736985e-02 5.066500e-14 1 
    0.470600 3.771612e-02 5.109100e-14 1 
    0.470800 3.753466e-02 5.080200e-14 1 
    0.471000 3.772998e-02 5.102300e-14 1 
    0.471200 3.843478e-02 5.193200e-14 1 
    0.471400 3.928147e-02 5.303100e-14 1 
    0.471600 3.970402e-02 5.355600e-14 1 
    0.471800 3.935929e-02 5.304600e-14 1 
    0.472000 3.914686e-02 5.271500e-14 1 
    0.472200 3.898829e-02 5.245700e-14 1 
    0.472400 3.917456e-02 5.266300e-14 1 
    0.472600 3.967305e-02 5.328800e-14 1 
    0.472800 3.984747e-02 5.347700e-14 1 
    0.473000 3.960675e-02 5.310900e-14 1 
    0.473200 3.887967e-02 5.209000e-14 1 
    0.473400 3.867649e-02 5.177400e-14 1 
    0.473600 3.854468e-02 5.155400e-14 1 
    0.473800 3.847099e-02 5.141200e-14 1 
    0.474000 3.792905e-02 5.064500e-14 1 
    0.474200 3.745287e-02 4.996700e-14 1 
    0.474400 3.678980e-02 4.904100e-14 1 
    0.474600 3.632754e-02 4.838400e-14 1 
    0.474800 3.632360e-02 4.833800e-14 1 
    0.475000 3.686788e-02 4.902100e-14 1 
    0.475200 3.704119e-02 4.921000e-14 1 
    0.475400 3.712813e-02 4.928400e-14 1 
    0.475600 3.684195e-02 4.886300e-14 1 
    0.475800 3.716271e-02 4.924700e-14 1 
    0.476000 3.722190e-02 4.928400e-14 1 
    0.476200 3.760997e-02 4.975600e-14 1 
    0.476400 3.733593e-02 4.935200e-14 1 
    0.476600 3.668282e-02 4.844800e-14 1 
    0.476800 3.595278e-02 4.744400e-14 1 
    0.477000 3.612250e-02 4.762800e-14 1 
    0.477200 3.667124e-02 4.831100e-14 1 
    0.477400 3.668224e-02 4.828500e-14 1 
    0.477600 3.665291e-02 4.820600e-14 1 
    0.477800 3.642717e-02 4.786900e-14 1 
    0.478000 3.634191e-02 4.771700e-14 1 
    0.478200 3.655298e-02 4.795400e-14 1 
    0.478400 3.633867e-02 4.763300e-14 1 
    0.478600 3.671036e-02 4.808000e-14 1 
    0.478800 3.615875e-02 4.731800e-14 1 
    0.479000 3.662261e-02 4.788500e-14 1 
    0.479200 3.727321e-02 4.869500e-14 1 
    0.479400 3.774329e-02 4.926800e-14 1 
    0.479600 3.749647e-02 4.890500e-14 1 
    0.479800 3.648721e-02 4.754900e-14 1 
    0.480000 3.631181e-02 4.728100e-14 1 
    0.480200 3.576406e-02 4.652900e-14 1 
    0.480400 3.526074e-02 4.583600e-14 1 
    0.480600 3.543178e-02 4.602000e-14 1 
    0.480800 3.581342e-02 4.647700e-14 1 
    0.481000 3.648332e-02 4.730700e-14 1 
    0.481200 3.660706e-02 4.742800e-14 1 
    0.481400 3.684065e-02 4.769100e-14 1 
    0.481600 3.754544e-02 4.856300e-14 1 
    0.481800 3.795500e-02 4.905200e-14 1 
    0.482000 3.881282e-02 5.011900e-14 1 
    0.482200 3.935425e-02 5.077600e-14 1 
    0.482400 3.970494e-02 5.118600e-14 1 
    0.482600 4.018660e-02 5.176400e-14 1 
    0.482800 3.990135e-02 5.135400e-14 1 
    0.483000 3.890016e-02 5.002400e-14 1 
    0.483200 3.824595e-02 4.914200e-14 1 
    0.483400 3.806419e-02 4.886800e-14 1 
    0.483600 3.839115e-02 4.924700e-14 1 
    0.483800 3.849235e-02 4.933600e-14 1 
    0.484000 3.900440e-02 4.995100e-14 1 
    0.484200 4.001743e-02 5.120600e-14 1 
    0.484400 4.085688e-02 5.223700e-14 1 
    0.484600 4.147459e-02 5.298300e-14 1 
    0.484800 4.166552e-02 5.318300e-14 1 
    0.485000 4.099031e-02 5.227800e-14 1 
    0.485200 4.048109e-02 5.158600e-14 1 
    0.485400 4.014612e-02 5.111700e-14 1 
    0.485600 4.046454e-02 5.148000e-14 1 
    0.485800 4.067567e-02 5.170600e-14 1 
    0.486000 4.049423e-02 5.143300e-14 1 
    0.486200 4.002642e-02 5.079700e-14 1 
    0.486400 3.945449e-02 5.003000e-14 1 
    0.486600 3.929199e-02 4.978300e-14 1 
    0.486800 3.962288e-02 5.016100e-14 1 
    0.487000 3.919059e-02 4.957300e-14 1 
    0.487200 3.863176e-02 4.882600e-14 1 
    0.487400 3.805612e-02 4.805900e-14 1 
    0.487600 3.858268e-02 4.868400e-14 1 
    0.487800 3.934405e-02 4.960400e-14 1 
    0.488000 3.995660e-02 5.033500e-14 1 
    0.488200 3.989720e-02 5.021900e-14 1 
    0.488400 4.003405e-02 5.035000e-14 1 
    0.488600 3.983687e-02 5.006100e-14 1 
    0.488800 4.001603e-02 5.024500e-14 1 
    0.489000 3.979770e-02 4.993000e-14 1 
    0.489200 3.964599e-02 4.969900e-14 1 
    0.489400 3.970316e-02 4.973000e-14 1 
    0.489600 4.036126e-02 5.051300e-14 1 
    0.489800 4.155458e-02 5.196400e-14 1 
    0.490000 4.225280e-02 5.279400e-14 1 
    0.490200 4.219839e-02 5.268300e-14 1 
    0.490400 4.162198e-02 5.192100e-14 1 
    0.490600 4.152115e-02 5.175300e-14 1 
    0.490800 4.092228e-02 5.096500e-14 1 
    0.491000 4.120958e-02 5.128100e-14 1 
    0.491200 4.092548e-02 5.088600e-14 1 
    0.491400 4.180478e-02 5.193700e-14 1 
    0.491600 4.147067e-02 5.148000e-14 1 
    0.491800 4.147943e-02 5.144900e-14 1 
    0.492000 4.113071e-02 5.097500e-14 1 
    0.492200 4.146537e-02 5.134800e-14 1 
    0.492400 4.183528e-02 5.176400e-14 1 
    0.492600 4.217501e-02 5.214200e-14 1 
    0.492800 4.182637e-02 5.166900e-14 1 
    0.493000 4.142608e-02 5.113300e-14 1 
    0.493200 4.096915e-02 5.052800e-14 1 
    0.493400 4.078978e-02 5.026600e-14 1 
    0.493600 4.038755e-02 4.973000e-14 1 
    0.493800 3.974567e-02 4.890000e-14 1 
    0.494000 3.959403e-02 4.867400e-14 1 
    0.494200 3.977996e-02 4.886300e-14 1 
    0.494400 4.005252e-02 4.915800e-14 1 
    0.494600 4.017463e-02 4.926800e-14 1 
    0.494800 4.028792e-02 4.936700e-14 1 
    0.495000 4.056144e-02 4.966200e-14 1 
    0.495200 4.092037e-02 5.006100e-14 1 
    0.495400 4.085444e-02 4.994000e-14 1 
    0.495600 4.037491e-02 4.931400e-14 1 
    0.495800 3.950454e-02 4.821200e-14 1 
    0.496000 3.836783e-02 4.678700e-14 1 
    0.496200 3.761336e-02 4.583000e-14 1 
    0.496400 3.722068e-02 4.531500e-14 1 
    0.496600 3.759265e-02 4.573100e-14 1 
    0.496800 3.699192e-02 4.496400e-14 1 
    0.497000 3.699948e-02 4.493700e-14 1 
    0.497200 3.707705e-02 4.499500e-14 1 
    0.497400 3.802560e-02 4.610900e-14 1 
    0.497600 3.826417e-02 4.636100e-14 1 
    0.497800 3.826520e-02 4.632500e-14 1 
    0.498000 3.837862e-02 4.642500e-14 1 
    0.498200 3.848309e-02 4.651400e-14 1 
    0.498400 3.851399e-02 4.651400e-14 1 
    0.498600 3.894598e-02 4.699800e-14 1 
    0.498800 3.916384e-02 4.722300e-14 1 
    0.499000 3.907324e-02 4.707600e-14 1 
    0.499200 3.910041e-02 4.707100e-14 1 
    0.499400 3.929802e-02 4.727100e-14 1 
    0.499600 4.005084e-02 4.813800e-14 1 
    0.499800 4.052423e-02 4.866800e-14 1 
    0.500000 4.076667e-02 4.892000e-14 1 
    0.500200 4.165914e-02 4.995100e-14 1 
    0.500400 4.244199e-02 5.084900e-14 1 
    0.500600 4.295040e-02 5.141700e-14 1 
    0.500800 4.265116e-02 5.101800e-14 1 
    0.501000 4.202593e-02 5.023000e-14 1 
    0.501200 4.171116e-02 4.981400e-14 1 
    0.501400 4.159948e-02 4.964100e-14 1 
    0.501600 4.147752e-02 4.945600e-14 1 
    0.501800 4.107918e-02 4.894200e-14 1 
    0.502000 4.066588e-02 4.841100e-14 1 
    0.502200 4.014176e-02 4.774900e-14 1 
    0.502400 3.980607e-02 4.731200e-14 1 
    0.502600 3.979398e-02 4.726000e-14 1 
    0.502800 4.003802e-02 4.751200e-14 1 
    0.503000 3.997711e-02 4.740200e-14 1 
    0.503200 4.055921e-02 4.805400e-14 1 
    0.503400 4.114137e-02 4.870500e-14 1 
    0.503600 4.223670e-02 4.996200e-14 1 
    0.503800 4.184723e-02 4.946200e-14 1 
    0.504000 4.137751e-02 4.886800e-14 1 
    0.504200 4.145950e-02 4.892600e-14 1 
    0.504400 4.170612e-02 4.917800e-14 1 
    0.504600 4.199382e-02 4.947800e-14 1 
    0.504800 4.184364e-02 4.926200e-14 1 
    0.505000 4.200262e-02 4.941000e-14 1 
    0.505200 4.230813e-02 4.973000e-14 1 
    0.505400 4.275373e-02 5.021400e-14 1 
    0.505600 4.302446e-02 5.049200e-14 1 
    0.505800 4.274895e-02 5.012900e-14 1 
    0.506000 4.214609e-02 4.938300e-14 1 
    0.506200 4.128172e-02 4.833200e-14 1 
    0.506400 4.091430e-02 4.786400e-14 1 
    0.506600 4.033154e-02 4.714500e-14 1 
    0.506800 4.041647e-02 4.720700e-14 1 
    0.507000 4.103873e-02 4.789600e-14 1 
    0.507200 4.186431e-02 4.882100e-14 1 
    0.507400 4.186558e-02 4.878400e-14 1 
    0.507600 4.088771e-02 4.760700e-14 1 
    0.507800 4.028818e-02 4.687200e-14 1 
    0.508000 4.011519e-02 4.663400e-14 1 
    0.508200 4.093450e-02 4.754900e-14 1 
    0.508400 4.101152e-02 4.760100e-14 1 
    0.508600 4.063250e-02 4.712400e-14 1 
    0.508800 3.967038e-02 4.597200e-14 1 
    0.509000 3.922486e-02 4.542000e-14 1 
    0.509200 3.921075e-02 4.536800e-14 1 
    0.509400 3.890596e-02 4.498000e-14 1 
    0.509600 3.902654e-02 4.508400e-14 1 
    0.509800 3.946261e-02 4.555200e-14 1 
    0.510000 3.971294e-02 4.580500e-14 1 
    0.510200 3.941958e-02 4.543100e-14 1 
    0.510400 3.923166e-02 4.517900e-14 1 
    0.510600 3.923895e-02 4.515200e-14 1 
    0.510800 3.898269e-02 4.482200e-14 1 
    0.511000 3.850055e-02 4.423300e-14 1 
    0.511200 3.831554e-02 4.398600e-14 1 
    0.511400 3.803430e-02 4.362900e-14 1 
    0.511600 3.722912e-02 4.267200e-14 1 
    0.511800 3.670380e-02 4.203700e-14 1 
    0.512000 3.776971e-02 4.322400e-14 1 
    0.512200 3.908123e-02 4.469000e-14 1 
    0.512400 3.994931e-02 4.564700e-14 1 
    0.512600 3.981934e-02 4.546300e-14 1 
    0.512800 3.984078e-02 4.545200e-14 1 
    0.513000 3.983063e-02 4.540500e-14 1 
    0.513200 3.942274e-02 4.490500e-14 1 
    0.513400 3.911257e-02 4.451700e-14 1 
    0.513600 3.905952e-02 4.442200e-14 1 
    0.513800 3.929321e-02 4.465300e-14 1 
    0.514000 4.001865e-02 4.544200e-14 1 
    0.514200 4.081392e-02 4.630900e-14 1 
    0.514400 4.109176e-02 4.658800e-14 1 
    0.514600 4.040431e-02 4.577300e-14 1 
    0.514800 4.017070e-02 4.547300e-14 1 
    0.515000 4.013738e-02 4.540000e-14 1 
    0.515200 3.977750e-02 4.495800e-14 1 
    0.515400 3.914252e-02 4.420600e-14 1 
    0.515600 3.982067e-02 4.493700e-14 1 
    0.515800 4.130154e-02 4.657200e-14 1 
    0.516000 4.192556e-02 4.723900e-14 1 
    0.516200 4.196250e-02 4.724400e-14 1 
    0.516400 4.182258e-02 4.705000e-14 1 
    0.516600 4.212631e-02 4.735500e-14 1 
    0.516800 4.222837e-02 4.743300e-14 1 
    0.517000 4.230828e-02 4.748600e-14 1 
    0.517200 4.218142e-02 4.730700e-14 1 
    0.517400 4.156264e-02 4.657700e-14 1 
    0.517600 4.105449e-02 4.597200e-14 1 
    0.517800 4.054195e-02 4.536300e-14 1 
    0.518000 4.028169e-02 4.503700e-14 1 
    0.518200 4.030296e-02 4.502600e-14 1 
    0.518400 4.041470e-02 4.511600e-14 1 
    0.518600 4.014377e-02 4.477900e-14 1 
    0.518800 3.976024e-02 4.431700e-14 1 
    0.519000 4.024433e-02 4.482200e-14 1 
    0.519200 4.089895e-02 4.551600e-14 1 
    0.519400 4.099072e-02 4.558300e-14 1 
    0.519600 4.037073e-02 4.485900e-14 1 
    0.519800 4.009379e-02 4.451700e-14 1 
    0.520000 4.025264e-02 4.465900e-14 1 
    0.520200 4.065796e-02 4.507400e-14 1 
    0.520400 4.112072e-02 4.555200e-14 1 
    0.520600 4.157965e-02 4.602500e-14 1 
    0.520800 4.191539e-02 4.636100e-14 1 
    0.521000 4.208602e-02 4.651400e-14 1 
    0.521200 4.211291e-02 4.650800e-14 1 
    0.521400 4.154987e-02 4.585100e-14 1 
    0.521600 4.049076e-02 4.464800e-14 1 
    0.521800 3.975854e-02 4.380700e-14 1 
    0.522000 4.035306e-02 4.442800e-14 1 
    0.522200 4.125752e-02 4.538900e-14 1 
    0.522400 4.202596e-02 4.619900e-14 1 
    0.522600 4.234947e-02 4.651900e-14 1 
    0.522800 4.221972e-02 4.634100e-14 1 
    0.523000 4.178611e-02 4.583000e-14 1 
    0.523200 4.096493e-02 4.489500e-14 1 
    0.523400 4.048306e-02 4.433300e-14 1 
    0.523600 4.019232e-02 4.398100e-14 1 
    0.523800 4.074159e-02 4.454800e-14 1 
    0.524000 4.187009e-02 4.574700e-14 1 
    0.524200 4.198816e-02 4.584100e-14 1 
    0.524400 4.163980e-02 4.542600e-14 1 
    0.524600 4.150828e-02 4.524800e-14 1 
    0.524800 4.219542e-02 4.596200e-14 1 
    0.525000 4.197585e-02 4.568800e-14 1 
    0.525200 4.111505e-02 4.471700e-14 1 
    0.525400 4.050319e-02 4.401800e-14 1 
    0.525600 4.023383e-02 4.369200e-14 1 
    0.525800 3.982396e-02 4.321400e-14 1 
    0.526000 3.929168e-02 4.260400e-14 1 
    0.526200 3.905483e-02 4.231500e-14 1 
    0.526400 3.914734e-02 4.238300e-14 1 
    0.526600 3.950246e-02 4.273500e-14 1 
    0.526800 3.944552e-02 4.264100e-14 1 
    0.527000 3.869135e-02 4.179400e-14 1 
    0.527200 3.780167e-02 4.080200e-14 1 
    0.527400 3.731300e-02 4.024400e-14 1 
    0.527600 3.713717e-02 4.002400e-14 1 
    0.527800 3.632497e-02 3.911900e-14 1 
    0.528000 3.516674e-02 3.784300e-14 1 
    0.528200 3.474328e-02 3.735900e-14 1 
    0.528400 3.521539e-02 3.783800e-14 1 
    0.528600 3.538363e-02 3.799000e-14 1 
    0.528800 3.461626e-02 3.713800e-14 1 
    0.529000 3.366207e-02 3.608700e-14 1 
    0.529200 3.375101e-02 3.615500e-14 1 
    0.529400 3.433239e-02 3.675000e-14 1 
    0.529600 3.492302e-02 3.735400e-14 1 
    0.529800 3.513653e-02 3.755400e-14 1 
    0.530000 3.543366e-02 3.784300e-14 1 
    0.530200 3.659798e-02 3.905700e-14 1 
    0.530400 3.835011e-02 4.089600e-14 1 
    0.530600 4.023342e-02 4.287200e-14 1 
    0.530800 4.133441e-02 4.401200e-14 1 
    0.531000 4.161744e-02 4.428000e-14 1 
    0.531200 4.142682e-02 4.404400e-14 1 
    0.531400 4.114081e-02 4.370700e-14 1 
    0.531600 4.169177e-02 4.425900e-14 1 
    0.531800 4.216998e-02 4.473300e-14 1 
    0.532000 4.213661e-02 4.466400e-14 1 
    0.532200 4.188507e-02 4.436400e-14 1 
    0.532400 4.225480e-02 4.472200e-14 1 
    0.532600 4.311579e-02 4.559900e-14 1 
    0.532800 4.332324e-02 4.578400e-14 1 
    0.533000 4.289744e-02 4.530000e-14 1 
    0.533200 4.300451e-02 4.537900e-14 1 
    0.533400 4.394343e-02 4.633500e-14 1 
    0.533600 4.509347e-02 4.751200e-14 1 
    0.533800 4.507789e-02 4.746000e-14 1 
    0.534000 4.490637e-02 4.724400e-14 1 
    0.534200 4.538519e-02 4.771200e-14 1 
    0.534400 4.612457e-02 4.845300e-14 1 
    0.534600 4.638964e-02 4.869500e-14 1 
    0.534800 4.616886e-02 4.842700e-14 1 
    0.535000 4.651443e-02 4.875300e-14 1 
    0.535200 4.753265e-02 4.978300e-14 1 
    0.535400 4.825137e-02 5.049800e-14 1 
    0.535600 4.799578e-02 5.019300e-14 1 
    0.535800 4.678952e-02 4.889500e-14 1 
    0.536000 4.619049e-02 4.823300e-14 1 
    0.536200 4.674249e-02 4.877300e-14 1 
    0.536400 4.802801e-02 5.007700e-14 1 
    0.536600 4.900635e-02 5.105900e-14 1 
    0.536800 4.843296e-02 5.042400e-14 1 
    0.537000 4.710027e-02 4.900000e-14 1 
    0.537200 4.585597e-02 4.767000e-14 1 
    0.537400 4.522204e-02 4.697600e-14 1 
    0.537600 4.506302e-02 4.677600e-14 1 
    0.537800 4.489410e-02 4.656600e-14 1 
    0.538000 4.503942e-02 4.668200e-14 1 
    0.538200 4.525636e-02 4.687200e-14 1 
    0.538400 4.581757e-02 4.741800e-14 1 
    0.538600 4.681182e-02 4.841100e-14 1 
    0.538800 4.747655e-02 4.906200e-14 1 
    0.539000 4.728326e-02 4.882600e-14 1 
    0.539200 4.712550e-02 4.862700e-14 1 
    0.539400 4.773073e-02 4.921500e-14 1 
    0.539600 4.889393e-02 5.037700e-14 1 
    0.539800 4.974120e-02 5.121200e-14 1 
    0.540000 4.979848e-02 5.123300e-14 1 
    0.540200 4.975366e-02 5.114900e-14 1 
    0.540400 5.022467e-02 5.159500e-14 1 
    0.540600 5.102559e-02 5.237900e-14 1 
    0.540800 5.140651e-02 5.273100e-14 1 
    0.541000 5.050113e-02 5.176400e-14 1 
    0.541200 4.883479e-02 5.001900e-14 1 
    0.541400 4.770527e-02 4.882600e-14 1 
    0.541600 4.814141e-02 4.923600e-14 1 
    0.541800 4.999207e-02 5.109100e-14 1 
    0.542000 5.168680e-02 5.278400e-14 1 
    0.542200 5.286755e-02 5.395000e-14 1 
    0.542400 5.371561e-02 5.477500e-14 1 
    0.542600 5.413208e-02 5.515900e-14 1 
    0.542800 5.404825e-02 5.503300e-14 1 
    0.543000 5.340108e-02 5.433400e-14 1 
    0.543200 5.318175e-02 5.407100e-14 1 
    0.543400 5.368649e-02 5.454400e-14 1 
    0.543600 5.326011e-02 5.407100e-14 1 
    0.543800 5.142346e-02 5.216800e-14 1 
    0.544000 4.915497e-02 4.983000e-14 1 
    0.544200 4.856821e-02 4.919900e-14 1 
    0.544400 4.965801e-02 5.026600e-14 1 
    0.544600 5.048442e-02 5.106500e-14 1 
    0.544800 5.088559e-02 5.143300e-14 1 
    0.545000 5.100018e-02 5.151100e-14 1 
    0.545200 5.103762e-02 5.151100e-14 1 
    0.545400 5.078356e-02 5.121700e-14 1 
    0.545600 5.113437e-02 5.153300e-14 1 
    0.545800 5.163062e-02 5.199500e-14 1 
    0.546000 5.164263e-02 5.196900e-14 1 
    0.546200 5.121507e-02 5.150100e-14 1 
    0.546400 5.123666e-02 5.148500e-14 1 
    0.546600 5.254097e-02 5.275700e-14 1 
    0.546800 5.415112e-02 5.433400e-14 1 
    0.547000 5.430045e-02 5.444400e-14 1 
    0.547200 5.350576e-02 5.360800e-14 1 
    0.547400 5.282073e-02 5.288300e-14 1 
    0.547600 5.333213e-02 5.335600e-14 1 
    0.547800 5.344511e-02 5.343000e-14 1 
    0.548000 5.312178e-02 5.306800e-14 1 
    0.548200 5.320163e-02 5.310900e-14 1 
    0.548400 5.370460e-02 5.357200e-14 1 
    0.548600 5.329534e-02 5.312500e-14 1 
    0.548800 5.220478e-02 5.200000e-14 1 
    0.549000 5.163602e-02 5.139600e-14 1 
    0.549200 5.181139e-02 5.153300e-14 1 
    0.549400 5.317019e-02 5.284600e-14 1 
    0.549600 5.461751e-02 5.424500e-14 1 
    0.549800 5.511674e-02 5.470100e-14 1 
    0.550000 5.368366e-02 5.324000e-14 1 
    0.550200 5.214857e-02 5.168000e-14 1 
    0.550400 5.236220e-02 5.185400e-14 1 
    0.550600 5.313795e-02 5.258400e-14 1 
    0.550800 5.330903e-02 5.271500e-14 1 
    0.551000 5.302391e-02 5.239500e-14 1 
    0.551200 5.338649e-02 5.271500e-14 1 
    0.551400 5.352051e-02 5.280900e-14 1 
    0.551600 5.275507e-02 5.201600e-14 1 
    0.551800 5.163630e-02 5.087600e-14 1 
    0.552000 5.136395e-02 5.057100e-14 1 
    0.552200 5.160955e-02 5.077600e-14 1 
    0.552400 5.223994e-02 5.135900e-14 1 
    0.552600 5.267373e-02 5.174800e-14 1 
    0.552800 5.287281e-02 5.190600e-14 1 
    0.553000 5.326989e-02 5.225800e-14 1 
    0.553200 5.387662e-02 5.281500e-14 1 
    0.553400 5.466080e-02 5.354500e-14 1 
    0.553600 5.461552e-02 5.346200e-14 1 
    0.553800 5.464375e-02 5.345100e-14 1 
    0.554000 5.497377e-02 5.373500e-14 1 
    0.554200 5.482509e-02 5.355100e-14 1 
    0.554400 5.413213e-02 5.283600e-14 1 
    0.554600 5.325563e-02 5.194300e-14 1 
    0.554800 5.306217e-02 5.171700e-14 1 
    0.555000 5.307271e-02 5.169000e-14 1 
    0.555200 5.353224e-02 5.210000e-14 1 
    0.555400 5.378160e-02 5.230500e-14 1 
    0.555600 5.340360e-02 5.190000e-14 1 
    0.555800 5.356150e-02 5.201600e-14 1 
    0.556000 5.381130e-02 5.222100e-14 1 
    0.556200 5.467911e-02 5.302500e-14 1 
    0.556400 5.462143e-02 5.293100e-14 1 
    0.556600 5.475261e-02 5.302000e-14 1 
    0.556800 5.462353e-02 5.285700e-14 1 
    0.557000 5.441250e-02 5.261500e-14 1 
    0.557200 5.419596e-02 5.236800e-14 1 
    0.557400 5.398529e-02 5.212700e-14 1 
    0.557600 5.377219e-02 5.188400e-14 1 
    0.557800 5.355564e-02 5.163800e-14 1 
    0.558000 5.334288e-02 5.139600e-14 1 
    0.558200 5.312458e-02 5.114900e-14 1 
    0.558400 5.291218e-02 5.090800e-14 1 
    0.558600 5.269734e-02 5.066500e-14 1 
    0.558800 5.247799e-02 5.041800e-14 1 
    0.559000 5.225828e-02 5.017100e-14 1 
    0.559200 5.201112e-02 4.989800e-14 1 
    0.559400 5.181885e-02 4.967800e-14 1 
    0.559600 5.222334e-02 5.003000e-14 1 
    0.559800 5.330944e-02 5.103400e-14 1 
    0.560000 5.439601e-02 5.203700e-14 1 
    0.560200 5.417649e-02 5.179000e-14 1 
    0.560400 5.330758e-02 5.092300e-14 1 
    0.560600 5.298737e-02 5.058100e-14 1 
    0.560800 5.394561e-02 5.145900e-14 1 
    0.561000 5.523039e-02 5.264700e-14 1 
    0.561200 5.569495e-02 5.305200e-14 1 
    0.561400 5.534174e-02 5.267800e-14 1 
    0.561600 5.487340e-02 5.219500e-14 1 
    0.561800 5.443064e-02 5.173700e-14 1 
    0.562000 5.440413e-02 5.167500e-14 1 
    0.562200 5.464725e-02 5.186900e-14 1 
    0.562400 5.499610e-02 5.216300e-14 1 
    0.562600 5.516289e-02 5.228400e-14 1 
    0.562800 5.507436e-02 5.216300e-14 1 
    0.563000 5.526883e-02 5.231000e-14 1 
    0.563200 5.512518e-02 5.213700e-14 1 
    0.563400 5.512520e-02 5.210000e-14 1 
    0.563600 5.564293e-02 5.255200e-14 1 
    0.563800 5.652266e-02 5.334500e-14 1 
    0.564000 5.658504e-02 5.336600e-14 1 
    0.564200 5.619650e-02 5.296200e-14 1 
    0.564400 5.647632e-02 5.318800e-14 1 
    0.564600 5.700195e-02 5.364500e-14 1 
    0.564800 5.719334e-02 5.378700e-14 1 
    0.565000 5.711042e-02 5.367100e-14 1 
    0.565200 5.757679e-02 5.407100e-14 1 
    0.565400 5.724246e-02 5.371900e-14 1 
    0.565600 5.623475e-02 5.273600e-14 1 
    0.565800 5.542831e-02 5.194300e-14 1 
    0.566000 5.602813e-02 5.246800e-14 1 
    0.566200 5.723038e-02 5.355600e-14 1 
    0.566400 5.806856e-02 5.430200e-14 1 
    0.566600 5.840172e-02 5.457500e-14 1 
    0.566800 5.826947e-02 5.441300e-14 1 
    0.567000 5.831060e-02 5.441300e-14 1 
    0.567200 5.879571e-02 5.482700e-14 1 
    0.567400 5.933405e-02 5.529000e-14 1 
    0.567600 5.871651e-02 5.467600e-14 1 
    0.567800 5.787024e-02 5.385000e-14 1 
    0.568000 5.749913e-02 5.346700e-14 1 
    0.568200 5.714897e-02 5.310400e-14 1 
    0.568400 5.648167e-02 5.244700e-14 1 
    0.568600 5.592654e-02 5.189500e-14 1 
    0.568800 5.671973e-02 5.259400e-14 1 
    0.569000 5.785933e-02 5.361300e-14 1 
    0.569200 5.818944e-02 5.388100e-14 1 
    0.569400 5.768565e-02 5.337700e-14 1 
    0.569600 5.715841e-02 5.285200e-14 1 
    0.569800 5.722128e-02 5.287300e-14 1 
    0.570000 5.707843e-02 5.270400e-14 1 
    0.570200 5.638371e-02 5.202600e-14 1 
    0.570400 5.610984e-02 5.173700e-14 1 
    0.570600 5.641834e-02 5.198500e-14 1 
    0.570800 5.641229e-02 5.194300e-14 1 
    0.571000 5.539437e-02 5.097000e-14 1 
    0.571200 5.534835e-02 5.089200e-14 1 
    0.571400 5.616962e-02 5.161100e-14 1 
    0.571600 5.674805e-02 5.210600e-14 1 
    0.571800 5.588210e-02 5.127500e-14 1 
    0.572000 5.521666e-02 5.062900e-14 1 
    0.572200 5.539279e-02 5.075500e-14 1 
    0.572400 5.586183e-02 5.114900e-14 1 
    0.572600 5.593584e-02 5.118100e-14 1 
    0.572800 5.610726e-02 5.130200e-14 1 
    0.573000 5.696289e-02 5.204800e-14 1 
    0.573200 5.809019e-02 5.304100e-14 1 
    0.573400 5.832034e-02 5.321400e-14 1 
    0.573600 5.785434e-02 5.275200e-14 1 
    0.573800 5.723620e-02 5.215200e-14 1 
    0.574000 5.704657e-02 5.194300e-14 1 
    0.574200 5.681488e-02 5.169600e-14 1 
    0.574400 5.667520e-02 5.153300e-14 1 
    0.574600 5.693918e-02 5.173700e-14 1 
    0.574800 5.728609e-02 5.201600e-14 1 
    0.575000 5.742516e-02 5.210600e-14 1 
    0.575200 5.749930e-02 5.213700e-14 1 
    0.575400 5.776002e-02 5.233700e-14 1 
    0.575600 5.771293e-02 5.225800e-14 1 
    0.575800 5.742149e-02 5.195800e-14 1 
    0.576000 5.721145e-02 5.173200e-14 1 
    0.576200 5.747253e-02 5.193200e-14 1 
    0.576400 5.781477e-02 5.220500e-14 1 
    0.576600 5.790809e-02 5.225300e-14 1 
    0.576800 5.795936e-02 5.226300e-14 1 
    0.577000 5.837244e-02 5.259900e-14 1 
    0.577200 5.880937e-02 5.295600e-14 1 
    0.577400 5.912018e-02 5.319900e-14 1 
    0.577600 5.896765e-02 5.302500e-14 1 
    0.577800 5.823061e-02 5.232600e-14 1 
    0.578000 5.761501e-02 5.173700e-14 1 
    0.578200 5.706984e-02 5.121200e-14 1 
    0.578400 5.675248e-02 5.089200e-14 1 
    0.578600 5.723141e-02 5.128600e-14 1 
    0.578800 5.818667e-02 5.210600e-14 1 
    0.579000 5.923597e-02 5.300900e-14 1 
    0.579200 5.897721e-02 5.274100e-14 1 
    0.579400 5.803545e-02 5.186300e-14 1 
    0.579600 5.815839e-02 5.193700e-14 1 
    0.579800 5.942443e-02 5.303100e-14 1 
    0.580000 5.991844e-02 5.343500e-14 1 
    0.580200 5.958836e-02 5.310400e-14 1 
    0.580400 5.887375e-02 5.243100e-14 1 
    0.580600 5.907389e-02 5.257300e-14 1 
    0.580800 5.950477e-02 5.292000e-14 1 
    0.581000 5.985407e-02 5.319400e-14 1 
    0.581200 6.027924e-02 5.353500e-14 1 
    0.581400 6.011904e-02 5.335600e-14 1 
    0.581600 5.955606e-02 5.282000e-14 1 
    0.581800 5.925402e-02 5.251600e-14 1 
    0.582000 5.961994e-02 5.280400e-14 1 
    0.582200 5.993435e-02 5.304600e-14 1 
    0.582400 5.998797e-02 5.305700e-14 1 
    0.582600 5.958793e-02 5.266700e-14 1 
    0.582800 5.891557e-02 5.203700e-14 1 
    0.583000 5.840879e-02 5.155400e-14 1 
    0.583200 5.853731e-02 5.163200e-14 1 
    0.583400 5.925136e-02 5.222600e-14 1 
    0.583600 5.955425e-02 5.245700e-14 1 
    0.583800 5.982342e-02 5.265800e-14 1 
    0.584000 6.007815e-02 5.284600e-14 1 
    0.584200 6.028085e-02 5.298800e-14 1 
    0.584400 6.025724e-02 5.293100e-14 1 
    0.584600 6.051380e-02 5.312000e-14 1 
    0.584800 6.159145e-02 5.402900e-14 1 
    0.585000 6.289183e-02 5.513200e-14 1 
    0.585200 6.362546e-02 5.573700e-14 1 
    0.585400 6.408933e-02 5.610500e-14 1 
    0.585600 6.417543e-02 5.614200e-14 1 
    0.585800 6.360615e-02 5.560600e-14 1 
    0.586000 6.316197e-02 5.518000e-14 1 
    0.586200 6.327038e-02 5.523700e-14 1 
    0.586400 6.419385e-02 5.600500e-14 1 
    0.586600 6.449114e-02 5.622600e-14 1 
    0.586800 6.414947e-02 5.589000e-14 1 
    0.587000 6.387275e-02 5.561100e-14 1 
    0.587200 6.390364e-02 5.560000e-14 1 
    0.587400 6.405070e-02 5.569000e-14 1 
    0.587600 6.403907e-02 5.564200e-14 1 
    0.587800 6.365885e-02 5.527400e-14 1 
    0.588000 6.332763e-02 5.494900e-14 1 
    0.588200 6.307317e-02 5.469100e-14 1 
    0.588400 6.312184e-02 5.469600e-14 1 
    0.588600 6.306197e-02 5.460700e-14 1 
    0.588800 6.300776e-02 5.452300e-14 1 
    0.589000 6.294651e-02 5.443300e-14 1 
    0.589200 6.288627e-02 5.434400e-14 1 
    0.589400 6.283170e-02 5.426000e-14 1 
    0.589600 6.277006e-02 5.417000e-14 1 
    0.589800 6.271641e-02 5.408700e-14 1 
    0.590000 6.265568e-02 5.399800e-14 1 
    0.590200 6.237421e-02 5.371900e-14 1 
    0.590400 6.245251e-02 5.375000e-14 1 
    0.590600 6.248320e-02 5.374000e-14 1 
    0.590800 6.231727e-02 5.356100e-14 1 
    0.591000 6.234084e-02 5.354500e-14 1 
    0.591200 6.318576e-02 5.423400e-14 1 
    0.591400 6.471731e-02 5.551100e-14 1 
    0.591600 6.528840e-02 5.596300e-14 1 
    0.591800 6.456556e-02 5.530600e-14 1 
    0.592000 6.379262e-02 5.460700e-14 1 
    0.592200 6.410578e-02 5.483800e-14 1 
    0.592400 6.527442e-02 5.580000e-14 1 
    0.592600 6.612387e-02 5.648800e-14 1 
    0.592800 6.617554e-02 5.649400e-14 1 
    0.593000 6.593654e-02 5.625200e-14 1 
    0.593200 6.578983e-02 5.608900e-14 1 
    0.593400 6.559358e-02 5.588400e-14 1 
    0.593600 6.510691e-02 5.543200e-14 1 
    0.593800 6.450789e-02 5.488500e-14 1 
    0.594000 6.420556e-02 5.459100e-14 1 
    0.594200 6.419938e-02 5.454900e-14 1 
    0.594400 6.473724e-02 5.496900e-14 1 
    0.594600 6.610073e-02 5.608900e-14 1 
    0.594800 6.748370e-02 5.722400e-14 1 
    0.595000 6.817932e-02 5.777500e-14 1 
    0.595200 6.780358e-02 5.741800e-14 1 
    0.595400 6.740840e-02 5.704500e-14 1 
    0.595600 6.756603e-02 5.714000e-14 1 
    0.595800 6.782321e-02 5.731900e-14 1 
    0.596000 6.755734e-02 5.705600e-14 1 
    0.596200 6.666311e-02 5.626300e-14 1 
    0.596400 6.607234e-02 5.572700e-14 1 
    0.596600 6.614751e-02 5.575300e-14 1 
    0.596800 6.584875e-02 5.546400e-14 1 
    0.597000 6.439954e-02 5.420700e-14 1 
    0.597200 6.236225e-02 5.245700e-14 1 
    0.597400 6.107879e-02 5.134300e-14 1 
    0.597600 6.066971e-02 5.096500e-14 1 
    0.597800 6.145603e-02 5.159100e-14 1 
    0.598000 6.245553e-02 5.239500e-14 1 
    0.598200 6.276689e-02 5.262100e-14 1 
    0.598400 6.299627e-02 5.277800e-14 1 
    0.598600 6.351615e-02 5.317800e-14 1 
    0.598800 6.447532e-02 5.394500e-14 1 
    0.599000 6.427920e-02 5.374500e-14 1 
    0.599200 6.386255e-02 5.336100e-14 1 
    0.599400 6.411957e-02 5.354000e-14 1 
    0.599600 6.462854e-02 5.392900e-14 1 
    0.599800 6.397853e-02 5.335100e-14 1 
    0.600000 6.269040e-02 5.224200e-14 1 
    0.600200 6.131165e-02 5.105900e-14 1 
    0.600400 5.977482e-02 4.974600e-14 1 
    0.600600 5.737498e-02 4.771700e-14 1 
    0.600800 5.486481e-02 4.559900e-14 1 
    0.601000 5.355407e-02 4.448000e-14 1 
    0.601200 5.336201e-02 4.429100e-14 1 
    0.601400 5.298520e-02 4.394900e-14 1 
    0.601600 5.241242e-02 4.344500e-14 1 
    0.601800 5.218048e-02 4.322400e-14 1 
    0.602000 5.204363e-02 4.308200e-14 1 
    0.602200 5.231998e-02 4.328200e-14 1 
    0.602400 5.311196e-02 4.390800e-14 1 
    0.602600 5.487693e-02 4.533700e-14 1 
    0.602800 5.638379e-02 4.655100e-14 1 
    0.603000 5.735689e-02 4.732300e-14 1 
    0.603200 5.831913e-02 4.808500e-14 1 
    0.603400 5.944280e-02 4.897900e-14 1 
    0.603600 6.035661e-02 4.969900e-14 1 
    0.603800 6.064453e-02 4.990300e-14 1 
    0.604000 6.044271e-02 4.970400e-14 1 
    0.604200 6.025277e-02 4.951500e-14 1 
    0.604400 6.064456e-02 4.980400e-14 1 
    0.604600 6.156688e-02 5.052800e-14 1 
    0.604800 6.242819e-02 5.120100e-14 1 
    0.605000 6.309295e-02 5.171200e-14 1 
    0.605200 6.362791e-02 5.211600e-14 1 
    0.605400 6.395951e-02 5.235300e-14 1 
    0.605600 6.378295e-02 5.217400e-14 1 
    0.605800 6.424958e-02 5.252100e-14 1 
    0.606000 6.546839e-02 5.348200e-14 1 
    0.606200 6.670224e-02 5.445400e-14 1 
    0.606400 6.665678e-02 5.438100e-14 1 
    0.606600 6.571461e-02 5.357700e-14 1 
    0.606800 6.507432e-02 5.302000e-14 1 
    0.607000 6.498212e-02 5.291000e-14 1 
    0.607200 6.470173e-02 5.264700e-14 1 
    0.607400 6.419465e-02 5.220000e-14 1 
    0.607600 6.365486e-02 5.172700e-14 1 
    0.607800 6.341848e-02 5.150100e-14 1 
    0.608000 6.307207e-02 5.118600e-14 1 
    0.608200 6.267955e-02 5.083400e-14 1 
    0.608400 6.274669e-02 5.085500e-14 1 
    0.608600 6.322872e-02 5.121200e-14 1 
    0.608800 6.381512e-02 5.165300e-14 1 
    0.609000 6.394236e-02 5.172200e-14 1 
    0.609200 6.364664e-02 5.144900e-14 1 
    0.609400 6.360921e-02 5.138500e-14 1 
    0.609600 6.419229e-02 5.182200e-14 1 
    0.609800 6.541939e-02 5.277800e-14 1 
    0.610000 6.651163e-02 5.362400e-14 1 
    0.610200 6.709640e-02 5.406000e-14 1 
    0.610400 6.706338e-02 5.399800e-14 1 
    0.610600 6.647974e-02 5.349300e-14 1 
    0.610800 6.583683e-02 5.294100e-14 1 
    0.611000 6.554646e-02 5.267300e-14 1 
    0.611200 6.540010e-02 5.252100e-14 1 
    0.611400 6.495197e-02 5.212700e-14 1 
    0.611600 6.442342e-02 5.166900e-14 1 
    0.611800 6.479993e-02 5.193700e-14 1 
    0.612000 6.598467e-02 5.285200e-14 1 
    0.612200 6.638135e-02 5.313500e-14 1 
    0.612400 6.573591e-02 5.258400e-14 1 
    0.612600 6.455545e-02 5.160600e-14 1 
    0.612800 6.409065e-02 5.120100e-14 1 
    0.613000 6.418511e-02 5.124300e-14 1 
    0.613200 6.441876e-02 5.139600e-14 1 
    0.613400 6.441438e-02 5.135900e-14 1 
    0.613600 6.392803e-02 5.093800e-14 1 
    0.613800 6.397725e-02 5.094400e-14 1 
    0.614000 6.446129e-02 5.129600e-14 1 
    0.614200 6.486041e-02 5.158000e-14 1 
    0.614400 6.478941e-02 5.149000e-14 1 
    0.614600 6.524963e-02 5.182200e-14 1 
    0.614800 6.624461e-02 5.257800e-14 1 
    0.615000 6.706434e-02 5.319400e-14 1 
    0.615200 6.777029e-02 5.371900e-14 1 
    0.615400 6.827892e-02 5.408700e-14 1 
    0.615600 6.842815e-02 5.417000e-14 1 
    0.615800 6.766364e-02 5.353000e-14 1 
    0.616000 6.706885e-02 5.302500e-14 1 
    0.616200 6.698710e-02 5.292600e-14 1 
    0.616400 6.694321e-02 5.285700e-14 1 
    0.616600 6.633399e-02 5.234200e-14 1 
    0.616800 6.581017e-02 5.189500e-14 1 
    0.617000 6.608634e-02 5.207900e-14 1 
    0.617200 6.690250e-02 5.268800e-14 1 
    0.617400 6.709960e-02 5.280900e-14 1 
    0.617600 6.721682e-02 5.286700e-14 1 
    0.617800 6.797028e-02 5.342500e-14 1 
    0.618000 6.953945e-02 5.462300e-14 1 
    0.618200 7.046856e-02 5.531700e-14 1 
    0.618400 7.029235e-02 5.514300e-14 1 
    0.618600 6.966688e-02 5.461700e-14 1 
    0.618800 6.931627e-02 5.430700e-14 1 
    0.619000 6.950158e-02 5.441700e-14 1 
    0.619200 6.973564e-02 5.456500e-14 1 
    0.619400 6.965920e-02 5.447000e-14 1 
    0.619600 6.932797e-02 5.417600e-14 1 
    0.619800 6.880803e-02 5.373500e-14 1 
    0.620000 6.850264e-02 5.346200e-14 1 
    0.620200 6.851222e-02 5.343500e-14 1 
    0.620400 6.891438e-02 5.371400e-14 1 
    0.620600 6.859421e-02 5.343000e-14 1 
    0.620800 6.715210e-02 5.227300e-14 1 
    0.621000 6.592661e-02 5.128600e-14 1 
    0.621200 6.609643e-02 5.138500e-14 1 
    0.621400 6.736434e-02 5.233700e-14 1 
    0.621600 6.826034e-02 5.299900e-14 1 
    0.621800 6.867029e-02 5.328300e-14 1 
    0.622000 6.901237e-02 5.351400e-14 1 
    0.622200 6.958584e-02 5.392400e-14 1 
    0.622400 7.016646e-02 5.433900e-14 1 
    0.622600 7.041571e-02 5.449700e-14 1 
    0.622800 6.989595e-02 5.406000e-14 1 
    0.623000 6.905074e-02 5.337200e-14 1 
    0.623200 6.887111e-02 5.319900e-14 1 
    0.623400 6.916664e-02 5.339300e-14 1 
    0.623600 6.934714e-02 5.349800e-14 1 
    0.623800 6.858743e-02 5.287800e-14 1 
    0.624000 6.726081e-02 5.182200e-14 1 
    0.624200 6.621817e-02 5.098600e-14 1 
    0.624400 6.547567e-02 5.038200e-14 1 
    0.624600 6.492333e-02 4.992500e-14 1 
    0.624800 6.461618e-02 4.965700e-14 1 
    0.625000 6.464323e-02 4.964600e-14 1 
    0.625200 6.547157e-02 5.025000e-14 1 
    0.625400 6.675333e-02 5.120100e-14 1 
    0.625600 6.791406e-02 5.205800e-14 1 
    0.625800 6.890523e-02 5.278400e-14 1 
    0.626000 6.927845e-02 5.303600e-14 1 
    0.626200 6.869663e-02 5.255700e-14 1 
    0.626400 6.858227e-02 5.243600e-14 1 
    0.626600 6.923202e-02 5.289900e-14 1 
    0.626800 7.017853e-02 5.358800e-14 1 
    0.627000 6.944492e-02 5.299400e-14 1 
    0.627200 6.750398e-02 5.148000e-14 1 
    0.627400 6.613259e-02 5.040200e-14 1 
    0.627600 6.539619e-02 4.980900e-14 1 
    0.627800 6.435401e-02 4.898400e-14 1 
    0.628000 6.351028e-02 4.831100e-14 1 
    0.628200 6.393091e-02 4.860000e-14 1 
    0.628400 6.501018e-02 4.938900e-14 1 
    0.628600 6.515430e-02 4.946700e-14 1 
    0.628800 6.363793e-02 4.828500e-14 1 
    0.629000 6.295044e-02 4.773300e-14 1 
    0.629200 6.298388e-02 4.772800e-14 1 
    0.629400 6.381489e-02 4.832700e-14 1 
    0.629600 6.385546e-02 4.832700e-14 1 
    0.629800 6.389603e-02 4.832700e-14 1 
    0.630000 6.393662e-02 4.832700e-14 1 
    0.630200 6.397723e-02 4.832700e-14 1 
    0.630400 6.401784e-02 4.832700e-14 1 
    0.630600 6.405846e-02 4.832700e-14 1 
    0.630800 6.409910e-02 4.832700e-14 1 
    0.631000 6.433485e-02 4.847400e-14 1 
    0.631200 6.428534e-02 4.840600e-14 1 
    0.631400 6.471013e-02 4.869500e-14 1 
    0.631600 6.552636e-02 4.927800e-14 1 
    0.631800 6.677736e-02 5.018700e-14 1 
    0.632000 6.709258e-02 5.039200e-14 1 
    0.632200 6.597999e-02 4.952500e-14 1 
    0.632400 6.459932e-02 4.845800e-14 1 
    0.632600 6.410795e-02 4.805900e-14 1 
    0.632800 6.438074e-02 4.823300e-14 1 
    0.633000 6.506655e-02 4.871600e-14 1 
    0.633200 6.524801e-02 4.882100e-14 1 
    0.633400 6.489472e-02 4.852600e-14 1 
    0.633600 6.450749e-02 4.820600e-14 1 
    0.633800 6.452011e-02 4.818500e-14 1 
    0.634000 6.522942e-02 4.868400e-14 1 
    0.634200 6.565134e-02 4.896800e-14 1 
    0.634400 6.575715e-02 4.901600e-14 1 
    0.634600 6.552880e-02 4.881500e-14 1 
    0.634800 6.500594e-02 4.839500e-14 1 
    0.635000 6.456035e-02 4.803300e-14 1 
    0.635200 6.426883e-02 4.778600e-14 1 
    0.635400 6.425951e-02 4.774900e-14 1 
    0.635600 6.408048e-02 4.758600e-14 1 
    0.635800 6.393620e-02 4.744900e-14 1 
    0.636000 6.379981e-02 4.731800e-14 1 
    0.636200 6.365510e-02 4.718100e-14 1 
    0.636400 6.351828e-02 4.705000e-14 1 
    0.636600 6.337314e-02 4.691300e-14 1 
    0.636800 6.323589e-02 4.678200e-14 1 
    0.637000 6.309032e-02 4.664500e-14 1 
    0.637200 6.294452e-02 4.650800e-14 1 
    0.637400 6.280663e-02 4.637700e-14 1 
    0.637600 6.258316e-02 4.618300e-14 1 
    0.637800 6.237971e-02 4.600400e-14 1 
    0.638000 6.274719e-02 4.624600e-14 1 
    0.638200 6.347758e-02 4.675500e-14 1 
    0.638400 6.384750e-02 4.699800e-14 1 
    0.638600 6.322142e-02 4.650800e-14 1 
    0.638800 6.311820e-02 4.640300e-14 1 
    0.639000 6.380969e-02 4.688200e-14 1 
    0.639200 6.460006e-02 4.743300e-14 1 
    0.639400 6.460641e-02 4.740800e-14 1 
    0.639600 6.410820e-02 4.701300e-14 1 
    0.639800 6.413466e-02 4.700300e-14 1 
    0.640000 6.465536e-02 4.735500e-14 1 
    0.640200 6.524088e-02 4.775400e-14 1 
    0.640400 6.534727e-02 4.780200e-14 1 
    0.640600 6.484915e-02 4.740800e-14 1 
    0.640800 6.452966e-02 4.714500e-14 1 
    0.641000 6.416591e-02 4.685000e-14 1 
    0.641200 6.427038e-02 4.689700e-14 1 
    0.641400 6.505235e-02 4.743800e-14 1 
    0.641600 6.608912e-02 4.816400e-14 1 
    0.641800 6.677841e-02 4.863600e-14 1 
    0.642000 6.716900e-02 4.889000e-14 1 
    0.642200 6.838763e-02 4.974600e-14 1 
    0.642400 6.957196e-02 5.057600e-14 1 
    0.642600 6.992637e-02 5.080200e-14 1 
    0.642800 6.936940e-02 5.036600e-14 1 
    0.643000 6.873176e-02 4.987200e-14 1 
    0.643200 6.796366e-02 4.928400e-14 1 
    0.643400 6.742501e-02 4.886300e-14 1 
    0.643600 6.754563e-02 4.892000e-14 1 
    0.643800 6.832816e-02 4.945600e-14 1 
    0.644000 6.895954e-02 4.988200e-14 1 
    0.644200 6.890140e-02 4.980900e-14 1 
    0.644400 6.858014e-02 4.954600e-14 1 
    0.644600 6.811304e-02 4.917800e-14 1 
    0.644800 6.763837e-02 4.880500e-14 1 
    0.645000 6.703272e-02 4.833800e-14 1 
    0.645200 6.643184e-02 4.787500e-14 1 
    0.645400 6.637166e-02 4.780200e-14 1 
    0.645600 6.707552e-02 4.827900e-14 1 
    0.645800 6.858652e-02 4.933600e-14 1 
    0.646000 7.028019e-02 5.052300e-14 1 
    0.646200 7.134120e-02 5.125400e-14 1 
    0.646400 7.157618e-02 5.139100e-14 1 
    0.646600 7.110065e-02 5.101800e-14 1 
    0.646800 7.041113e-02 5.049200e-14 1 
    0.647000 6.984631e-02 5.005600e-14 1 
    0.647200 6.932402e-02 4.965100e-14 1 
    0.647400 6.892679e-02 4.933600e-14 1 
    0.647600 6.883658e-02 4.924100e-14 1 
    0.647800 6.866649e-02 4.908900e-14 1 
    0.648000 6.813502e-02 4.867900e-14 1 
    0.648200 6.744040e-02 4.815300e-14 1 
    0.648400 6.749744e-02 4.816400e-14 1 
    0.648600 6.828369e-02 4.869500e-14 1 
    0.648800 6.873833e-02 4.898900e-14 1 
    0.649000 6.873579e-02 4.895700e-14 1 
    0.649200 6.818109e-02 4.853200e-14 1 
    0.649400 6.781545e-02 4.824200e-14 1 
    0.649600 6.807946e-02 4.840000e-14 1 
    0.649800 6.919529e-02 4.916300e-14 1 
    0.650000 7.038428e-02 4.997700e-14 1 
    0.650200 7.053892e-02 5.005600e-14 1 
    0.650400 7.044132e-02 4.995600e-14 1 
    0.650600 7.111392e-02 5.040200e-14 1 
    0.650800 7.184096e-02 5.088600e-14 1 
    0.651000 7.121693e-02 5.041300e-14 1 
    0.651200 7.058503e-02 4.993500e-14 1 
    0.651400 7.024933e-02 4.966700e-14 1 
    0.651600 7.062648e-02 4.990300e-14 1 
    0.651800 7.076047e-02 4.996700e-14 1 
    0.652000 7.087050e-02 5.001400e-14 1 
    0.652200 7.113660e-02 5.017100e-14 1 
    0.652400 7.099438e-02 5.004000e-14 1 
    0.652600 7.126931e-02 5.020300e-14 1 
    0.652800 7.194086e-02 5.064500e-14 1 
    0.653000 7.246963e-02 5.098600e-14 1 
    0.653200 7.239456e-02 5.090200e-14 1 
    0.653400 7.214005e-02 5.069200e-14 1 
    0.653600 7.208739e-02 5.062400e-14 1 
    0.653800 7.213151e-02 5.062400e-14 1 
    0.654000 7.196464e-02 5.047600e-14 1 
    0.654200 7.209854e-02 5.053900e-14 1 
    0.654400 7.231535e-02 5.066000e-14 1 
    0.654600 7.238241e-02 5.067600e-14 1 
    0.654800 7.232232e-02 5.060300e-14 1 
    0.655000 7.223064e-02 5.050800e-14 1 
    0.655200 7.225187e-02 5.049200e-14 1 
    0.655400 7.202537e-02 5.030300e-14 1 
    0.655600 7.230286e-02 5.046600e-14 1 
    0.655800 7.232405e-02 5.045000e-14 1 
    0.656000 7.183312e-02 5.007700e-14 1 
    0.656200 7.157407e-02 4.986600e-14 1 
    0.656400 7.172398e-02 4.994000e-14 1 
    0.656600 7.201631e-02 5.011300e-14 1 
    0.656800 7.141168e-02 4.966200e-14 1 
    0.657000 7.079619e-02 4.920400e-14 1 
    0.657200 7.122514e-02 4.947200e-14 1 
    0.657400 7.243537e-02 5.028200e-14 1 
    0.657600 7.357784e-02 5.104400e-14 1 
    0.657800 7.375963e-02 5.113900e-14 1 
    0.658000 7.343214e-02 5.088100e-14 1 
    0.658200 7.331072e-02 5.076600e-14 1 
    0.658400 7.309663e-02 5.058700e-14 1 
    0.658600 7.310200e-02 5.056000e-14 1 
    0.658800 7.349651e-02 5.080200e-14 1 
    0.659000 7.436338e-02 5.137000e-14 1 
    0.659200 7.485031e-02 5.167500e-14 1 
    0.659400 7.462036e-02 5.148500e-14 1 
    0.659600 7.407828e-02 5.108000e-14 1 
    0.659800 7.367482e-02 5.077100e-14 1 
    0.660000 7.371949e-02 5.077100e-14 1 
    0.660200 7.400681e-02 5.093800e-14 1 
    0.660400 7.439765e-02 5.117600e-14 1 
    0.660600 7.503039e-02 5.158000e-14 1 
    0.660800 7.542807e-02 5.182200e-14 1 
    0.661000 7.543441e-02 5.179500e-14 1 
    0.661200 7.512886e-02 5.155400e-14 1 
    0.661400 7.507370e-02 5.148500e-14 1 
    0.661600 7.474414e-02 5.122800e-14 1 
    0.661800 7.381410e-02 5.056000e-14 1 
    0.662000 7.265355e-02 4.973500e-14 1 
    0.662200 7.167719e-02 4.903700e-14 1 
    0.662400 7.172634e-02 4.904100e-14 1 
    0.662600 7.259360e-02 4.960400e-14 1 
    0.662800 7.351457e-02 5.020300e-14 1 
    0.663000 7.351205e-02 5.017100e-14 1 
    0.663200 7.278670e-02 4.964600e-14 1 
    0.663400 7.266044e-02 4.953000e-14 1 
    0.663600 7.327526e-02 4.991900e-14 1 
    0.663800 7.352800e-02 5.006100e-14 1 
    0.664000 7.304030e-02 4.969900e-14 1 
    0.664200 7.244168e-02 4.926200e-14 1 
    0.664400 7.249414e-02 4.926800e-14 1 
    0.664600 7.290146e-02 4.951500e-14 1 
    0.664800 7.294534e-02 4.951500e-14 1 
    0.665000 7.297302e-02 4.950400e-14 1 
    0.665200 7.396975e-02 5.015000e-14 1 
    0.665400 7.541040e-02 5.109600e-14 1 
    0.665600 7.623989e-02 5.162700e-14 1 
    0.665800 7.626207e-02 5.161100e-14 1 
    0.666000 7.620735e-02 5.154300e-14 1 
    0.666200 7.659488e-02 5.177400e-14 1 
    0.666400 7.678890e-02 5.187400e-14 1 
    0.666600 7.692091e-02 5.193200e-14 1 
    0.666800 7.704563e-02 5.198500e-14 1 
    0.667000 7.700583e-02 5.192700e-14 1 
    0.667200 7.651339e-02 5.156400e-14 1 
    0.667400 7.621629e-02 5.133300e-14 1 
    0.667600 7.628426e-02 5.134800e-14 1 
    0.667800 7.640876e-02 5.140100e-14 1 
    0.668000 7.607970e-02 5.114900e-14 1 
    0.668200 7.543618e-02 5.068600e-14 1 
    0.668400 7.510607e-02 5.043400e-14 1 
    0.668600 7.533132e-02 5.055500e-14 1 
    0.668800 7.609057e-02 5.103400e-14 1 
    0.669000 7.620472e-02 5.108000e-14 1 
    0.669200 7.520834e-02 5.038200e-14 1 
    0.669400 7.398967e-02 4.953600e-14 1 
    0.669600 7.334939e-02 4.907800e-14 1 
    0.669800 7.322124e-02 4.896300e-14 1 
    0.670000 7.284749e-02 4.868400e-14 1 
    0.670200 7.279816e-02 4.862200e-14 1 
    0.670400 7.278619e-02 4.858500e-14 1 
    0.670600 7.260776e-02 4.843700e-14 1 
    0.670800 7.221761e-02 4.814800e-14 1 
    0.671000 7.213461e-02 4.806400e-14 1 
    0.671200 7.220916e-02 4.808500e-14 1 
    0.671400 7.225219e-02 4.808500e-14 1 
    0.671600 7.288010e-02 4.847400e-14 1 
    0.671800 7.384872e-02 4.908900e-14 1 
    0.672000 7.487263e-02 4.974000e-14 1 
    0.672200 7.549557e-02 5.012400e-14 1 
    0.672400 7.589768e-02 5.036100e-14 1 
    0.672600 7.633944e-02 5.062400e-14 1 
    0.672800 7.692350e-02 5.098100e-14 1 
    0.673000 7.773016e-02 5.148500e-14 1 
    0.673200 7.806340e-02 5.167500e-14 1 
    0.673400 7.770469e-02 5.140700e-14 1 
    0.673600 7.699614e-02 5.090800e-14 1 
    0.673800 7.650765e-02 5.055500e-14 1 
    0.674000 7.614726e-02 5.028700e-14 1 
    0.674200 7.622427e-02 5.030800e-14 1 
    0.674400 7.678799e-02 5.065000e-14 1 
    0.674600 7.716879e-02 5.087100e-14 1 
    0.674800 7.708554e-02 5.078600e-14 1 
    0.675000 7.680470e-02 5.057100e-14 1 
    0.675200 7.709793e-02 5.073400e-14 1 
    0.675400 7.700068e-02 5.064000e-14 1 
    0.675600 7.661419e-02 5.035600e-14 1 
    0.675800 7.639468e-02 5.018200e-14 1 
    0.676000 7.686488e-02 5.046100e-14 1 
    0.676200 7.755814e-02 5.088600e-14 1 
    0.676400 7.778093e-02 5.100200e-14 1 
    0.676600 7.762703e-02 5.087100e-14 1 
    0.676800 7.735077e-02 5.066000e-14 1 
    0.677000 7.693205e-02 5.035600e-14 1 
    0.677200 7.659229e-02 5.010400e-14 1 
    0.677400 7.633010e-02 4.990300e-14 1 
    0.677600 7.622365e-02 4.980400e-14 1 
    0.677800 7.627632e-02 4.980900e-14 1 
    0.678000 7.653125e-02 4.994600e-14 1 
    0.678200 7.738900e-02 5.047600e-14 1 
    0.678400 7.827380e-02 5.102300e-14 1 
    0.678600 7.844890e-02 5.110700e-14 1 
    0.678800 7.768726e-02 5.058100e-14 1 
    0.679000 7.682787e-02 4.999200e-14 1 
    0.679200 7.656714e-02 4.979300e-14 1 
    0.679400 7.669224e-02 4.984500e-14 1 
    0.679600 7.669891e-02 4.982000e-14 1 
    0.679800 7.699361e-02 4.998200e-14 1 
    0.680000 7.768629e-02 5.040200e-14 1 
    0.680200 7.829337e-02 5.076600e-14 1 
    0.680400 7.767431e-02 5.033500e-14 1 
    0.680600 7.663143e-02 4.963000e-14 1 
    0.680800 7.582365e-02 4.907800e-14 1 
    0.681000 7.569043e-02 4.896300e-14 1 
    0.681200 7.627781e-02 4.931400e-14 1 
    0.681400 7.707169e-02 4.979800e-14 1 
    0.681600 7.773639e-02 5.019800e-14 1 
    0.681800 7.753719e-02 5.004000e-14 1 
    0.682000 7.657336e-02 4.938900e-14 1 
    0.682200 7.568749e-02 4.878900e-14 1 
    0.682400 7.568376e-02 4.875800e-14 1 
    0.682600 7.740241e-02 4.983600e-14 1 
    0.682800 7.992960e-02 5.143300e-14 1 
    0.683000 8.130748e-02 5.228900e-14 1 
    0.683912 7.593844e-02 4.870600e-14 0 
    0.685488 7.561845e-02 4.827800e-14 0 
    0.687068 7.291162e-02 4.633600e-14 0 
    0.688652 7.602724e-02 4.809400e-14 0 
    0.690240 7.415494e-02 4.669400e-14 0 
    0.691831 7.714561e-02 4.835400e-14 0 
    0.693426 7.861086e-02 4.904600e-14 0 
    0.695024 7.667425e-02 4.761800e-14 0 
    0.696626 7.812971e-02 4.829900e-14 0 
    0.698233 7.816070e-02 4.809600e-14 0 
    0.699842 7.711894e-02 4.723700e-14 0 
    0.701455 7.539351e-02 4.596800e-14 0 
    0.703072 7.789506e-02 4.727500e-14 0 
    0.704693 7.900948e-02 4.773100e-14 0 
    0.706318 7.977340e-02 4.797100e-14 0 
    0.707946 7.925446e-02 4.744000e-14 0 
    0.709578 8.264296e-02 4.924100e-14 0 
    0.711214 8.116642e-02 4.813900e-14 0 
    0.712853 8.424605e-02 4.973600e-14 0 
    0.714496 8.525596e-02 5.010100e-14 0 
    0.716143 8.373307e-02 4.898000e-14 0 
    0.717794 8.454208e-02 4.922600e-14 0 
    0.719449 8.634719e-02 5.004600e-14 0 
    0.721108 8.638360e-02 4.983700e-14 0 
    0.722770 7.863286e-02 4.515700e-14 0 
    0.724436 8.068216e-02 4.612100e-14 0 
    0.726106 8.202643e-02 4.667400e-14 0 
    0.727780 8.187188e-02 4.637200e-14 0 
    0.729457 7.821980e-02 4.410000e-14 0 
    0.731139 7.825129e-02 4.391500e-14 0 
    0.732825 7.756539e-02 4.333000e-14 0 
    0.734514 7.904014e-02 4.395100e-14 0 
    0.736207 7.998846e-02 4.427400e-14 0 
    0.737904 8.340868e-02 4.595500e-14 0 
    0.739605 8.558241e-02 4.693600e-14 0 
    0.741310 8.842291e-02 4.827100e-14 0 
    0.743019 8.785205e-02 4.773900e-14 0 
    0.744732 8.529589e-02 4.613700e-14 0 
    0.746449 8.997256e-02 4.844300e-14 0 
    0.748170 9.063420e-02 4.857500e-14 0 
    0.749894 9.193338e-02 4.904500e-14 0 
    0.751623 9.389820e-02 4.986300e-14 0 
    0.753356 9.502599e-02 5.023000e-14 0 
    0.755092 9.572482e-02 5.036700e-14 0 
    0.756833 9.576388e-02 5.015600e-14 0 
    0.758578 9.558451e-02 4.983200e-14 0 
    0.760326 1.008257e-01 5.232300e-14 0 
    0.762079 1.020364e-01 5.270800e-14 0 
    0.763836 1.020796e-01 5.248800e-14 0 
    0.765597 1.033070e-01 5.287500e-14 0 
    0.767361 1.033498e-01 5.265400e-14 0 
    0.769130 1.050750e-01 5.328700e-14 0 
    0.770904 1.063368e-01 5.367900e-14 0 
    0.772681 1.039599e-01 5.223800e-14 0 
    0.774462 1.023424e-01 5.118900e-14 0 
    0.776247 1.014469e-01 5.050800e-14 0 
    0.778037 1.014916e-01 5.029800e-14 0 
    0.779830 1.027119e-01 5.066900e-14 0 
    0.781628 1.004165e-01 4.930900e-14 0 
    0.783430 9.931087e-02 4.854200e-14 0 
    0.785236 1.016684e-01 4.946600e-14 0 
    0.787046 1.005477e-01 4.869600e-14 0 
    0.788860 9.740034e-02 4.695500e-14 0 
    0.790679 9.948383e-02 4.773900e-14 0 
    0.792501 9.417727e-02 4.498500e-14 0 
    0.794328 1.011887e-01 4.811200e-14 0 
    0.796159 1.010007e-01 4.780200e-14 0 
    0.797995 1.026876e-01 4.837700e-14 0 
    0.799834 1.046414e-01 4.907100e-14 0 
    0.801678 1.044474e-01 4.875500e-14 0 
    0.803526 1.054611e-01 4.900200e-14 0 
    0.805378 1.040603e-01 4.812900e-14 0 
    0.807235 1.024425e-01 4.716300e-14 0 
    0.809096 1.015472e-01 4.653600e-14 0 
    0.810961 1.032435e-01 4.709600e-14 0 
    0.812831 1.021081e-01 4.636400e-14 0 
    0.814704 1.067210e-01 4.823600e-14 0 
    0.816582 1.085049e-01 4.881700e-14 0 
    0.818465 1.068176e-01 4.783700e-14 0 
    0.820352 1.108753e-01 4.942600e-14 0 
    0.822243 1.140350e-01 5.060100e-14 0 
    0.824138 1.148759e-01 5.074000e-14 0 
    0.826038 1.112826e-01 4.892700e-14 0 
    0.827942 1.087984e-01 4.761500e-14 0 
    0.829851 1.118969e-01 4.874600e-14 0 
    0.831764 1.109236e-01 4.810000e-14 0 
    0.833681 1.125174e-01 4.856700e-14 0 
    0.835603 1.125690e-01 4.836600e-14 0 
    0.837529 1.139233e-01 4.872300e-14 0 
    0.839460 1.155626e-01 4.919700e-14 0 
    0.841395 1.044763e-01 4.427300e-14 0 
    0.843335 1.216792e-01 5.132600e-14 0 
    0.845279 1.217359e-01 5.111400e-14 0 
    0.847227 1.176559e-01 4.917400e-14 0 
    0.849180 1.131921e-01 4.709100e-14 0 
    0.851138 1.137678e-01 4.711300e-14 0 
    0.853100 1.180919e-01 4.867900e-14 0 
    0.855067 1.192391e-01 4.892600e-14 0 
    0.857038 1.179311e-01 4.816700e-14 0 
    0.859014 1.190782e-01 4.841200e-14 0 
    0.860994 1.194079e-01 4.832300e-14 0 
    0.862979 1.130405e-01 4.553600e-14 0 
    0.864968 1.146670e-01 4.597900e-14 0 
    0.866962 1.182078e-01 4.718100e-14 0 
    0.868960 9.546621e-02 3.792900e-14 0 
    0.870964 1.117006e-01 4.417500e-14 0 
    0.872971 1.112406e-01 4.379100e-14 0 
    0.874984 1.165366e-01 4.566500e-14 0 
    0.877001 1.190332e-01 4.642900e-14 0 
    0.879023 1.199176e-01 4.655900e-14 0 
    0.881049 1.196973e-01 4.626000e-14 0 
    0.883080 1.225451e-01 4.714300e-14 0 
    0.885116 1.192616e-01 4.566900e-14 0 
    0.887156 1.134238e-01 4.323400e-14 0 
    0.889201 1.221572e-01 4.634900e-14 0 
    0.891251 1.256389e-01 4.745100e-14 0 
    0.893305 1.242609e-01 4.671500e-14 0 
    0.895365 1.283942e-01 4.804700e-14 0 
    0.897429 1.252445e-01 4.665300e-14 0 
    0.899498 1.288136e-01 4.776200e-14 0 
    0.901571 1.324886e-01 4.889900e-14 0 
    0.903650 1.304328e-01 4.791900e-14 0 
    0.905733 1.329217e-01 4.860900e-14 0 
    0.907820 1.212855e-01 4.415000e-14 0 
    0.909913 1.253200e-01 4.540900e-14 0 
    0.912011 1.268357e-01 4.574700e-14 0 
    0.914113 1.295546e-01 4.651300e-14 0 
    0.916220 1.287255e-01 4.600300e-14 0 
    0.918333 1.247040e-01 4.436100e-14 0 
    0.920450 1.196992e-01 4.238500e-14 0 
    0.922571 1.265641e-01 4.461000e-14 0 
    0.924698 1.378880e-01 4.837800e-14 0 
    0.926830 1.302380e-01 4.548400e-14 0 
    0.928966 1.336465e-01 4.646000e-14 0 
    0.931108 1.327926e-01 4.595100e-14 0 
    0.933254 1.391189e-01 4.791900e-14 0 
    0.935406 1.311018e-01 4.495000e-14 0 
    0.937562 1.290698e-01 4.405000e-14 0 
    0.939723 1.355321e-01 4.604300e-14 0 
    0.941890 1.274253e-01 4.309000e-14 0 
    0.944061 1.274905e-01 4.291400e-14 0 
    0.946237 1.348001e-01 4.516600e-14 0 
    0.948418 1.399317e-01 4.667000e-14 0 
    0.950605 1.273905e-01 4.229200e-14 0 
    0.952796 1.433357e-01 4.736700e-14 0 
    0.954993 1.434077e-01 4.717300e-14 0 
    0.957194 1.415133e-01 4.633600e-14 0 
    0.959401 1.448819e-01 4.722100e-14 0 
    0.961612 1.432973e-01 4.649000e-14 0 
    0.963829 1.477273e-01 4.770700e-14 0 
    0.966051 1.464494e-01 4.707700e-14 0 
    0.968278 1.506288e-01 4.819800e-14 0 
    0.970510 1.517510e-01 4.833400e-14 0 
    0.972747 1.504359e-01 4.769500e-14 0 
    0.974990 1.487920e-01 4.695700e-14 0 
    0.977237 1.512867e-01 4.752500e-14 0 
    0.979490 1.545371e-01 4.832300e-14 0 
    0.981748 1.531975e-01 4.768400e-14 0 
    0.984011 1.550535e-01 4.804000e-14 0 
    0.986279 1.526531e-01 4.707900e-14 0 
    0.988553 1.537911e-01 4.721200e-14 0 
    0.990832 1.567328e-01 4.789400e-14 0 
    0.993116 1.543067e-01 4.693600e-14 0 
    0.995405 1.533245e-01 4.642300e-14 0 
    0.997700 1.548253e-01 4.666200e-14 0 
    1.000000 1.527833e-01 4.583500e-14 0 
    1.002305 1.582336e-01 4.725200e-14 0 
    1.004615 1.575912e-01 4.684400e-14 0 
    1.006931 1.591332e-01 4.708500e-14 0 
    1.009253 1.588528e-01 4.678600e-14 0 
    1.011580 1.596680e-01 4.681000e-14 0 
    1.013912 1.593873e-01 4.651300e-14 0 
    1.016249 1.609491e-01 4.675300e-14 0 
    1.018591 1.617782e-01 4.677800e-14 0 
    1.020939 1.622365e-01 4.669500e-14 0 
    1.023294 1.638271e-01 4.693600e-14 0 
    1.030386 1.644672e-01 4.647300e-14 0 
    1.035142 1.680928e-01 4.706200e-14 0 
    1.039921 1.678893e-01 4.657400e-14 0 
    1.044720 1.704102e-01 4.684000e-14 0 
    1.049542 1.725707e-01 4.699900e-14 0 
    1.051962 1.726665e-01 4.680900e-14 0 
    1.071520 1.741713e-01 4.550900e-14 0 
    1.093956 1.737706e-01 4.356100e-14 0 
    1.114294 1.749735e-01 4.227600e-14 0 
    1.135010 1.721743e-01 4.009500e-14 0 
    1.153453 1.745733e-01 3.936400e-14 0 
    1.174898 1.794639e-01 3.900300e-14 0 
    1.193988 1.798784e-01 3.785300e-14 0 
    1.216186 1.794652e-01 3.640000e-14 0 
    1.235947 1.815409e-01 3.565300e-14 0 
    1.256030 1.844911e-01 3.508300e-14 0 
    1.276439 1.849143e-01 3.404800e-14 0 
    1.297179 1.866253e-01 3.327300e-14 0 
    1.318256 1.879198e-01 3.244100e-14 0 
    1.339676 1.900980e-01 3.177600e-14 0 
    1.358313 1.892247e-01 3.076800e-14 0 
    1.380384 1.909715e-01 3.006700e-14 0 
    1.399587 1.931877e-01 2.958700e-14 0 
    1.419057 1.900954e-01 2.832000e-14 0 
    1.442115 1.870548e-01 2.698300e-14 0 
    1.462177 1.896586e-01 2.661300e-14 0 
    1.482518 1.967744e-01 2.685900e-14 0 
    1.503142 1.940780e-01 2.576900e-14 0 
    1.520548 2.013579e-01 2.612700e-14 0 
    1.541701 2.084332e-01 2.630800e-14 0 
    1.563147 2.182633e-01 2.679800e-14 0 
    1.584892 2.218076e-01 2.649100e-14 0 
    1.603245 2.233416e-01 2.606700e-14 0 
    1.625549 2.223147e-01 2.524000e-14 0 
    1.644372 2.280249e-01 2.529900e-14 0 
    1.663413 2.317223e-01 2.512400e-14 0 
    1.686554 2.349527e-01 2.478000e-14 0 
    1.706082 2.376696e-01 2.449600e-14 0 
    1.725838 2.393139e-01 2.410400e-14 0 
    1.745823 2.387723e-01 2.350200e-14 0 
    1.766039 2.349463e-01 2.259900e-14 0 
    1.786487 2.311948e-01 2.173200e-14 0 
    1.807174 2.264560e-01 2.080200e-14 0 
    1.828101 2.218054e-01 1.991100e-14 0 
    1.849270 2.162567e-01 1.897100e-14 0 
    1.870681 2.142712e-01 1.836900e-14 0 
    1.887991 2.103655e-01 1.770500e-14 0 
    1.909854 2.055755e-01 1.690800e-14 0 
    1.931967 2.041675e-01 1.641000e-14 0 
    1.949844 2.041616e-01 1.611000e-14 0 
    1.972423 2.013569e-01 1.552700e-14 0 
    1.990672 1.972273e-01 1.493100e-14 0 
    2.013724 1.940763e-01 1.435800e-14 0 
    2.032357 1.909794e-01 1.387100e-14 0 
    2.055892 1.923004e-01 1.364900e-14 0 
    2.074913 1.887858e-01 1.315500e-14 0 
    2.094113 1.892261e-01 1.294500e-14 0 
    2.113488 1.879196e-01 1.262100e-14 0 
    2.133045 1.866209e-01 1.230500e-14 0 
    2.157745 1.874916e-01 1.208100e-14 0 
    2.177709 1.866299e-01 1.180600e-14 0 
    2.197860 1.857683e-01 1.153700e-14 0 
    2.218197 1.832192e-01 1.117100e-14 0 
    2.238721 1.827997e-01 1.094200e-14 0 
    2.259436 1.802934e-01 1.059500e-14 0 
    2.280341 1.786358e-01 1.030600e-14 0 
    2.296149 1.765869e-01 1.004800e-14 0 
    2.317393 1.749737e-01 9.774500e-15 0 
    2.338837 1.588461e-01 8.711600e-15 0 
    2.360479 1.599458e-01 8.611800e-15 0 
    2.382319 1.415702e-01 7.483300e-15 0 
    2.398834 1.348890e-01 7.032300e-15 0 
    2.421028 1.393073e-01 7.130100e-15 0 
    2.443431 1.297099e-01 6.517700e-15 0 
    2.460366 1.267582e-01 6.282000e-15 0 
    2.483133 1.270494e-01 6.181500e-15 0 
    2.500344 1.193912e-01 5.729200e-15 0 
    2.523480 1.191168e-01 5.611700e-15 0 
    2.546831 1.009189e-01 4.667600e-15 0 
    2.564484 1.002249e-01 4.571900e-15 0 
    2.582261 1.020882e-01 4.593000e-15 0 
    2.606153 1.030329e-01 4.550900e-15 0 
    2.624220 1.064084e-01 4.635500e-15 0 
    2.648499 1.064083e-01 4.550900e-15 0 
    2.666859 1.076398e-01 4.540400e-15 0 
    2.685344 1.064090e-01 4.426900e-15 0 
    2.710192 1.068987e-01 4.366100e-15 0 
    2.728977 1.064072e-01 4.286400e-15 0 
    2.747895 1.061635e-01 4.217900e-15 0 
    2.766941 1.054328e-01 4.131400e-15 0 
    2.786122 1.047080e-01 4.046700e-15 0 
    2.811900 1.049494e-01 3.982000e-15 0 
    2.831393 1.037479e-01 3.882400e-15 0 
    2.851018 1.037470e-01 3.829100e-15 0 
    2.870782 1.027949e-01 3.741900e-15 0 
    2.890680 1.025591e-01 3.682100e-15 0 
    2.910719 1.016194e-01 3.598300e-15 0 
    2.930893 1.011517e-01 3.532600e-15 0 
    2.951208 1.004569e-01 3.460200e-15 0 
    2.971666 9.999408e-02 3.397000e-15 0 
    2.992263 9.907798e-02 3.319700e-15 0 
    3.013007 9.862266e-02 3.259100e-15 0 
    3.033890 9.816894e-02 3.199600e-15 0 
    3.054922 9.749403e-02 3.134000e-15 0 
    3.076096 9.704604e-02 3.076800e-15 0 
    3.097421 9.682283e-02 3.027600e-15 0 
    3.118889 9.682074e-02 2.986000e-15 0 
    3.133284 9.637810e-02 2.945100e-15 0 
    3.155005 9.637850e-02 2.904700e-15 0 
    3.176873 9.615482e-02 2.858200e-15 0 
    3.198896 9.637720e-02 2.825500e-15 0 
    3.221068 9.879686e-02 2.856700e-15 0 
    3.235938 9.797991e-02 2.807100e-15 0 
    3.258367 9.669215e-02 2.732200e-15 0 
    3.280952 9.552547e-02 2.662200e-15 0 
    3.303696 9.435142e-02 2.593400e-15 0 
    3.318944 9.353168e-02 2.547300e-15 0 
    3.341952 9.237584e-02 2.481300e-15 0 
    3.365115 9.126388e-02 2.417800e-15 0 
    3.380647 9.048541e-02 2.375200e-15 0 
    3.404082 8.934174e-02 2.313000e-15 0 
    3.419794 8.864804e-02 2.274000e-15 0 
    3.443501 8.755331e-02 2.215100e-15 0 
    3.467368 8.642676e-02 2.156600e-15 0 
    3.483372 8.576631e-02 2.120500e-15 0 
    3.507520 8.472867e-02 2.066100e-15 0 
    3.523708 8.400188e-02 2.029600e-15 0 
    3.548136 8.299265e-02 1.977700e-15 0 
    3.564512 8.234171e-02 1.944200e-15 0 
    3.589218 8.131854e-02 1.893700e-15 0 
    3.605788 8.062357e-02 1.860300e-15 0 
    3.630780 7.970618e-02 1.813900e-15 0 
    3.647538 7.906441e-02 1.782800e-15 0 
    3.664377 7.839962e-02 1.751600e-15 0 
    3.689775 7.746162e-02 1.706900e-15 0 
    3.706805 7.686382e-02 1.678200e-15 0 
    3.732502 7.592706e-02 1.635000e-15 0 
    3.749729 7.527036e-02 1.606000e-15 0 
    3.767040 7.471818e-02 1.579600e-15 0 
    3.793150 7.384394e-02 1.539700e-15 0 
    3.810657 7.323478e-02 1.513000e-15 0 
    3.828249 7.262772e-02 1.486700e-15 0 
    3.854783 7.181524e-02 1.449900e-15 0 
    3.872575 7.124497e-02 1.425200e-15 0 
    3.890453 7.065310e-02 1.400400e-15 0 
    3.917418 6.983016e-02 1.365100e-15 0 
    3.935499 6.930432e-02 1.342400e-15 0 
    3.953667 6.875248e-02 1.319500e-15 0 
    3.971915 6.817908e-02 1.296500e-15 0 
    3.990248 6.765822e-02 1.274800e-15 0 
    4.017909 6.689367e-02 1.243100e-15 0 
    4.036454 6.636123e-02 1.221900e-15 0 
    4.055084 6.580771e-02 1.200600e-15 0 
    4.073804 6.532138e-02 1.180800e-15 0 
    4.092607 6.483705e-02 1.161300e-15 0 
    4.120973 6.406901e-02 1.131800e-15 0 
    4.139998 6.353644e-02 1.112100e-15 0 
    4.159106 6.308639e-02 1.094100e-15 0 
    4.178302 6.261095e-02 1.075900e-15 0 
    4.197591 6.212144e-02 1.057700e-15 0 
    4.216965 6.161144e-02 1.039400e-15 0 
    4.236428 6.115850e-02 1.022300e-15 0 
    4.255986 6.071013e-02 1.005500e-15 0 
    4.285485 6.000583e-02 9.802000e-16 0 
    4.305264 5.951252e-02 9.632300e-16 0 
    4.325140 5.908990e-02 9.476200e-16 0 
    4.345102 5.865673e-02 9.320500e-16 0 
    4.365157 5.820608e-02 9.164100e-16 0 
    4.385309 5.773768e-02 9.007000e-16 0 
    4.405549 5.730854e-02 8.858100e-16 0 
    4.425883 5.689723e-02 8.713900e-16 0 
    4.446310 5.646944e-02 8.569100e-16 0 
    4.466837 5.602434e-02 8.423600e-16 0 
    4.487454 5.559020e-02 8.281700e-16 0 
    4.508165 5.520012e-02 8.148200e-16 0 
    4.528977 5.479341e-02 8.014000e-16 0 
    4.549880 5.437018e-02 7.879200e-16 0 
    4.570880 5.393235e-02 7.744100e-16 0 
    4.591982 5.356201e-02 7.620400e-16 0 
    4.602567 5.337073e-02 7.558300e-16 0 
    4.623810 5.297656e-02 7.433700e-16 0 
    4.645151 5.256693e-02 7.308600e-16 0 
    4.666595 5.215908e-02 7.185400e-16 0 
    4.688134 5.179917e-02 7.070400e-16 0 
    4.709772 5.142516e-02 6.955000e-16 0 
    4.731515 5.103543e-02 6.839000e-16 0 
    4.753353 5.063021e-02 6.722500e-16 0 
    4.775292 5.028305e-02 6.615200e-16 0 
    4.786299 5.010658e-02 6.561700e-16 0 
    4.808395 4.974333e-02 6.454400e-16 0 
    4.830588 4.936586e-02 6.346700e-16 0 
    4.852884 4.898186e-02 6.239600e-16 0 
    4.875287 4.865079e-02 6.140600e-16 0 
    4.897789 4.830611e-02 6.041200e-16 0 
    4.909079 4.812822e-02 5.991300e-16 0 
    4.931736 4.776196e-02 5.891200e-16 0 
    4.954504 4.740456e-02 5.793500e-16 0 
    4.977371 4.708341e-02 5.701500e-16 0 
    5.000344 4.674893e-02 5.609100e-16 0 
    5.011870 4.657619e-02 5.562700e-16 0 
    5.035008 4.622050e-02 5.469600e-16 0 
    5.058246 4.588823e-02 5.380500e-16 0 
    5.081593 4.557687e-02 5.295000e-16 0 
    5.093306 4.541625e-02 5.252100e-16 0 
    5.116820 4.508514e-02 5.166000e-16 0 
    5.140436 4.474037e-02 5.079500e-16 0 
    5.164162 4.443162e-02 4.998200e-16 0 
    5.176071 4.428134e-02 4.958400e-16 0 
    5.188002 4.412864e-02 4.918600e-16 0 
    5.199961 4.397269e-02 4.878700e-16 0 
    5.211947 4.381344e-02 4.838700e-16 0 
    5.223961 4.365089e-02 4.798600e-16 0 
    5.236003 4.348591e-02 4.758500e-16 0 
    5.248072 4.331663e-02 4.718200e-16 0 
    5.260175 4.317263e-02 4.680900e-16 0 
    5.272300 4.302998e-02 4.644000e-16 0 
    5.284453 4.288511e-02 4.607100e-16 0 
    5.296634 4.273703e-02 4.570100e-16 0 
    5.308843 4.258574e-02 4.533000e-16 0 
    5.321080 4.243120e-02 4.495800e-16 0 
    5.333352 4.227348e-02 4.458500e-16 0 
    5.345646 4.211235e-02 4.421100e-16 0 
    5.357968 4.195648e-02 4.384500e-16 0 
    5.370318 4.182134e-02 4.350300e-16 0 
    5.382697 4.168310e-02 4.316000e-16 0 
    5.395105 4.154174e-02 4.281600e-16 0 
    5.407541 4.139817e-02 4.247200e-16 0 
    5.420011 4.125149e-02 4.212700e-16 0 
    5.432505 4.110152e-02 4.178100e-16 0 
    5.445027 4.094828e-02 4.143400e-16 0 
    5.457579 4.079178e-02 4.108600e-16 0 
    5.470159 4.065290e-02 4.075800e-16 0 
    5.482768 4.052188e-02 4.044000e-16 0 
    5.495406 4.038778e-02 4.012100e-16 0 
    5.508079 4.025066e-02 3.980100e-16 0 
    5.520776 4.011032e-02 3.948000e-16 0 
    5.533502 3.996782e-02 3.915900e-16 0 
    5.546257 3.982212e-02 3.883700e-16 0 
    5.559041 3.967422e-02 3.851500e-16 0 
    5.571855 3.952411e-02 3.819300e-16 0 
    5.584705 3.939890e-02 3.789700e-16 0 
    5.597578 3.927159e-02 3.760100e-16 0 
    5.610481 3.914122e-02 3.730400e-16 0 
    5.623413 3.900775e-02 3.700600e-16 0 
    5.636376 3.887222e-02 3.670800e-16 0 
    5.649368 3.873354e-02 3.640900e-16 0 
    5.662390 3.859275e-02 3.611000e-16 0 
    5.675448 3.844778e-02 3.580900e-16 0 
    5.688531 3.831351e-02 3.552000e-16 0 
    5.701643 3.819234e-02 3.524500e-16 0 
    5.714786 3.806925e-02 3.497000e-16 0 
    5.727959 3.794201e-02 3.469300e-16 0 
    5.741162 3.781279e-02 3.441600e-16 0 
    5.754402 3.768165e-02 3.413900e-16 0 
    5.767667 3.754621e-02 3.386000e-16 0 
    5.780962 3.740982e-02 3.358200e-16 0 
    5.794287 3.726912e-02 3.330200e-16 0 
    5.807643 3.714993e-02 3.304300e-16 0 
    5.821030 3.703225e-02 3.278700e-16 0 
    5.834448 3.691156e-02 3.253000e-16 0 
    5.847904 3.678905e-02 3.227300e-16 0 
    5.861383 3.666337e-02 3.201500e-16 0 
    5.874894 3.653462e-02 3.175600e-16 0 
    5.888436 3.640389e-02 3.149700e-16 0 
    5.902009 3.627118e-02 3.123800e-16 0 
    5.915614 3.614114e-02 3.098300e-16 0 
    5.929250 3.602905e-02 3.074500e-16 0 
    5.942924 3.591523e-02 3.050700e-16 0 
    5.956623 3.579833e-02 3.026800e-16 0 
    5.970353 3.567839e-02 3.002800e-16 0 
    5.984115 3.555657e-02 2.978800e-16 0 
    5.997909 3.543169e-02 2.954700e-16 0 
    6.011735 3.530490e-02 2.930600e-16 0 
    6.025599 3.517504e-02 2.906400e-16 0 
    6.039488 3.506017e-02 2.883600e-16 0 
    6.053410 3.495083e-02 2.861400e-16 0 
    6.067363 3.483972e-02 2.839200e-16 0 
    6.081349 3.472562e-02 2.816900e-16 0 
    6.095367 3.460972e-02 2.794600e-16 0 
    6.109417 3.449077e-02 2.772200e-16 0 
    6.123506 3.437005e-02 2.749800e-16 0 
    6.137621 3.424615e-02 2.727300e-16 0 
    6.151769 3.412165e-02 2.704900e-16 0 
    6.165950 3.401808e-02 2.684300e-16 0 
    6.180162 3.391281e-02 2.663700e-16 0 
    6.194408 3.380458e-02 2.643000e-16 0 
    6.208693 3.369341e-02 2.622200e-16 0 
    6.223005 3.358042e-02 2.601400e-16 0 
    6.237350 3.346568e-02 2.580600e-16 0 
    6.251727 3.334785e-02 2.559700e-16 0 
    6.266138 3.322822e-02 2.538800e-16 0 
    6.280582 3.311599e-02 2.518600e-16 0 
    6.295059 3.301521e-02 2.499400e-16 0 
    6.309576 3.291288e-02 2.480200e-16 0 
    6.324120 3.280748e-02 2.460900e-16 0 
    6.338698 3.270042e-02 2.441600e-16 0 
    6.353309 3.259033e-02 2.422200e-16 0 
    6.367954 3.247852e-02 2.402800e-16 0 
    6.382632 3.236362e-02 2.383300e-16 0 
    6.397352 3.224705e-02 2.363800e-16 0 
    6.412098 3.214782e-02 2.345700e-16 0 
    6.426879 3.204975e-02 2.327800e-16 0 
    6.441693 3.195008e-02 2.309900e-16 0 
    6.456541 3.184742e-02 2.291900e-16 0 
    6.471424 3.174313e-02 2.273900e-16 0 
    6.486341 3.163580e-02 2.255800e-16 0 
    6.501300 3.152688e-02 2.237700e-16 0 
    6.516286 3.141620e-02 2.219600e-16 0 
    6.531306 3.130810e-02 2.201800e-16 0 
    6.546361 3.121547e-02 2.185200e-16 0 
    6.561452 3.111990e-02 2.168500e-16 0 
    6.576576 3.102275e-02 2.151800e-16 0 
    6.591735 3.092261e-02 2.135000e-16 0 
    6.606937 3.082095e-02 2.118200e-16 0 
    6.622166 3.071762e-02 2.101400e-16 0 
    6.637431 3.061123e-02 2.084500e-16 0 
    6.652731 3.050319e-02 2.067600e-16 0 
    6.668066 3.040683e-02 2.051600e-16 0 
    6.683436 3.031639e-02 2.036100e-16 0 
    6.698849 3.022303e-02 2.020500e-16 0 
    6.714291 3.012960e-02 2.005000e-16 0 
    6.729768 3.003165e-02 1.989300e-16 0 
    6.745280 2.993366e-02 1.973700e-16 0 
    6.760829 2.983262e-02 1.958000e-16 0 
    6.776412 2.972845e-02 1.942200e-16 0 
    6.792033 2.962425e-02 1.926500e-16 0 
    6.807696 2.953858e-02 1.912100e-16 0 
    6.823389 2.944989e-02 1.897600e-16 0 
    6.839117 2.935974e-02 1.883100e-16 0 
    6.854882 2.926813e-02 1.868600e-16 0 
    6.870683 2.917348e-02 1.854000e-16 0 
    6.886520 2.907733e-02 1.839400e-16 0 
    6.902402 2.897974e-02 1.824800e-16 0 
    6.918312 2.887896e-02 1.810100e-16 0 
    6.934259 2.878626e-02 1.796000e-16 0 
    6.950243 2.870174e-02 1.782500e-16 0 
    6.966264 2.861584e-02 1.769000e-16 0 
    6.982322 2.852852e-02 1.755500e-16 0 
    6.998416 2.843815e-02 1.741900e-16 0 
    7.014556 2.834642e-02 1.728300e-16 0 
    7.030725 2.825317e-02 1.714700e-16 0 
    7.046931 2.815679e-02 1.701000e-16 0 
    7.063175 2.805892e-02 1.687300e-16 0 
    7.079456 2.797626e-02 1.674600e-16 0 
    7.095775 2.789559e-02 1.662100e-16 0 
    7.112139 2.781196e-02 1.649500e-16 0 
    7.128533 2.772520e-02 1.636800e-16 0 
    7.144965 2.763875e-02 1.624200e-16 0 
    7.161434 2.754921e-02 1.611500e-16 0 
    7.177942 2.745824e-02 1.598800e-16 0 
    7.194488 2.736586e-02 1.586100e-16 0 
    7.211072 2.727550e-02 1.573600e-16 0 
    7.227702 2.719772e-02 1.561900e-16 0 
    7.244362 2.711682e-02 1.550100e-16 0 
    7.261061 2.703636e-02 1.538400e-16 0 
    7.277798 2.695280e-02 1.526600e-16 0 
    7.294573 2.686790e-02 1.514800e-16 0 
    7.311388 2.678166e-02 1.503000e-16 0 
    7.328241 2.669224e-02 1.491100e-16 0 
    7.345141 2.660148e-02 1.479200e-16 0 
    7.362073 2.652012e-02 1.467900e-16 0 
    7.379043 2.644468e-02 1.457000e-16 0 
    7.396052 2.636799e-02 1.446100e-16 0 
    7.413101 2.628819e-02 1.435100e-16 0 
    7.430188 2.620709e-02 1.424100e-16 0 
    7.447323 2.612474e-02 1.413100e-16 0 
    7.464490 2.603916e-02 1.402000e-16 0 
    7.481696 2.595410e-02 1.391000e-16 0 
    7.498942 2.586583e-02 1.379900e-16 0 
    7.516227 2.579313e-02 1.369700e-16 0 
    7.533553 2.571921e-02 1.359500e-16 0 
    7.550919 2.564407e-02 1.349300e-16 0 
    7.568332 2.556773e-02 1.339100e-16 0 
    7.585778 2.548817e-02 1.328800e-16 0 
    7.603263 2.540732e-02 1.318500e-16 0 
    7.620790 2.532520e-02 1.308200e-16 0 
    7.638356 2.524177e-02 1.297900e-16 0 
    7.655963 2.516289e-02 1.287900e-16 0 
    7.673619 2.509261e-02 1.278400e-16 0 
    7.691307 2.502110e-02 1.268900e-16 0 
    7.709036 2.494641e-02 1.259300e-16 0 
    7.726806 2.487249e-02 1.249800e-16 0 
    7.744617 2.479536e-02 1.240200e-16 0 
    7.762469 2.471698e-02 1.230600e-16 0 
    7.780362 2.463533e-02 1.220900e-16 0 
    7.798305 2.455449e-02 1.211300e-16 0 
    7.816280 2.448453e-02 1.202300e-16 0 
    7.834298 2.441546e-02 1.193400e-16 0 
    7.852356 2.434522e-02 1.184500e-16 0 
    7.870456 2.427382e-02 1.175600e-16 0 
    7.888598 2.420124e-02 1.166700e-16 0 
    7.906782 2.412539e-02 1.157700e-16 0 
    7.925016 2.404837e-02 1.148700e-16 0 
    7.943284 2.397218e-02 1.139800e-16 0 
    7.961594 2.389478e-02 1.130900e-16 0 
    7.979946 2.383101e-02 1.122700e-16 0 
    7.998341 2.376400e-02 1.114400e-16 0 
    8.016777 2.369588e-02 1.106100e-16 0 
    8.035265 2.362451e-02 1.097700e-16 0 
    8.053787 2.355409e-02 1.089400e-16 0 
    8.072352 2.348036e-02 1.081000e-16 0 
    8.090959 2.340543e-02 1.072600e-16 0 
    8.109609 2.332931e-02 1.064200e-16 0 
    8.128302 2.326300e-02 1.056300e-16 0 
    8.147038 2.319779e-02 1.048500e-16 0 
    8.165827 2.313377e-02 1.040800e-16 0 
    8.184650 2.306637e-02 1.033000e-16 0 
    8.203516 2.299786e-02 1.025200e-16 0 
    8.222426 2.292822e-02 1.017400e-16 0 
    8.241379 2.285745e-02 1.009600e-16 0 
    8.260376 2.278554e-02 1.001800e-16 0 
    8.279426 2.271162e-02 9.939600e-17 0 
    8.298510 2.265093e-02 9.867500e-17 0 
    8.317639 2.258898e-02 9.795300e-17 0 
    8.336812 2.252551e-02 9.722900e-17 0 
    8.356029 2.246050e-02 9.650300e-17 0 
    8.375290 2.239418e-02 9.577600e-17 0 
    8.394596 2.232630e-02 9.504700e-17 0 
    8.413955 2.225689e-02 9.431600e-17 0 
    8.433350 2.218608e-02 9.358400e-17 0 
    8.452789 2.212009e-02 9.287700e-17 0 
    8.472273 2.206116e-02 9.220400e-17 0 
    8.491803 2.200050e-02 9.152800e-17 0 
    8.511377 2.193880e-02 9.085200e-17 0 
    8.531005 2.187538e-02 9.017300e-17 0 
    8.550670 2.181063e-02 8.949300e-17 0 
    8.570380 2.174455e-02 8.881200e-17 0 
    8.590135 2.167692e-02 8.812900e-17 0 
    8.609937 2.160771e-02 8.744400e-17 0 
    8.629783 2.154930e-02 8.680700e-17 0 
    8.649675 2.149165e-02 8.617700e-17 0 
    8.669623 2.143255e-02 8.554500e-17 0 
    8.689607 2.137215e-02 8.491200e-17 0 
    8.709637 2.131047e-02 8.427800e-17 0 
    8.729713 2.124727e-02 8.364200e-17 0 
    8.749836 2.118277e-02 8.300500e-17 0 
    8.770005 2.111697e-02 8.236700e-17 0 
    8.790220 2.105295e-02 8.174000e-17 0 
    8.810492 2.099802e-02 8.115200e-17 0 
    8.830801 2.094157e-02 8.056200e-17 0 
    8.851157 2.088415e-02 7.997200e-17 0 
    8.871559 2.082523e-02 7.938000e-17 0 
    8.892009 2.076506e-02 7.878700e-17 0 
    8.912505 2.070361e-02 7.819300e-17 0 
    8.933059 2.064042e-02 7.759600e-17 0 
    8.953651 2.057615e-02 7.699900e-17 0 
    8.974289 2.051917e-02 7.643300e-17 0 
    8.994976 2.046554e-02 7.588300e-17 0 
    9.015710 2.041071e-02 7.533200e-17 0 
    9.036491 2.035466e-02 7.478000e-17 0 
    9.057321 2.029712e-02 7.422600e-17 0 
    9.078209 2.023838e-02 7.367100e-17 0 
    9.099135 2.017834e-02 7.311500e-17 0 
    9.120109 2.011677e-02 7.255700e-17 0 
    9.141132 2.005447e-02 7.200000e-17 0 
    9.162202 2.000348e-02 7.148700e-17 0 
    9.183322 1.995132e-02 7.097300e-17 0 
    9.204501 1.989772e-02 7.045700e-17 0 
    9.225717 1.984288e-02 6.994000e-17 0 
    9.246984 1.978683e-02 6.942200e-17 0 
    9.268298 1.972953e-02 6.890300e-17 0 
    9.289662 1.967101e-02 6.838300e-17 0 
    9.311076 1.961095e-02 6.786100e-17 0 
    9.332538 1.955543e-02 6.735800e-17 0 
    9.354061 1.950545e-02 6.687700e-17 0 
    9.375623 1.945454e-02 6.639600e-17 0 
    9.397234 1.940215e-02 6.591300e-17 0 
    9.418895 1.934887e-02 6.543000e-17 0 
    9.440607 1.929409e-02 6.494500e-17 0 
    9.462368 1.923809e-02 6.445900e-17 0 
    9.484190 1.918091e-02 6.397200e-17 0 
    9.506052 1.912245e-02 6.348400e-17 0 
    9.527963 1.907301e-02 6.302900e-17 0 
    9.549927 1.902455e-02 6.258000e-17 0 
    9.571940 1.897462e-02 6.212900e-17 0 
    9.594004 1.892351e-02 6.167700e-17 0 
    9.616119 1.887153e-02 6.122500e-17 0 
    9.638295 1.881809e-02 6.077100e-17 0 
    9.660512 1.876340e-02 6.031600e-17 0 
    9.682780 1.870749e-02 5.986000e-17 0 
    9.705099 1.865350e-02 5.941300e-17 0 
    9.727470 1.860712e-02 5.899300e-17 0 
    9.749893 1.855959e-02 5.857200e-17 0 
    9.772367 1.851092e-02 5.815000e-17 0 
    9.794904 1.846112e-02 5.772700e-17 0 
    9.817482 1.841011e-02 5.730300e-17 0 
    9.840112 1.835790e-02 5.687800e-17 0 
    9.862794 1.830483e-02 5.645300e-17 0 
    9.885528 1.825022e-02 5.602600e-17 0 
    9.908315 1.820192e-02 5.562100e-17 0 
    9.931166 1.815644e-02 5.522700e-17 0 
    9.954058 1.811011e-02 5.483300e-17 0 
    9.977002 1.806263e-02 5.443800e-17 0 
   10.000000 1.801400e-02 5.404200e-17 0 
   10.023051 1.796420e-02 5.364500e-17 0 
   10.046155 1.791356e-02 5.324800e-17 0 
   10.069312 1.786138e-02 5.284900e-17 0 
   10.092534 1.780873e-02 5.245100e-17 0 
   10.115797 1.776540e-02 5.208300e-17 0 
   10.139115 1.772129e-02 5.171500e-17 0 
   10.162486 1.767605e-02 5.134600e-17 0 
   10.185912 1.762968e-02 5.097600e-17 0 
   10.209391 1.758214e-02 5.060500e-17 0 
   10.232935 1.753349e-02 5.023300e-17 0 
   10.256523 1.748362e-02 4.986000e-17 0 
   10.280165 1.743292e-02 4.948700e-17 0 
   10.303862 1.738562e-02 4.912600e-17 0 
   10.327612 1.734356e-02 4.878200e-17 0 
   10.351419 1.730038e-02 4.843700e-17 0 
   10.375279 1.725608e-02 4.809100e-17 0 
   10.399206 1.721068e-02 4.774400e-17 0 
   10.423177 1.716445e-02 4.739700e-17 0 
   10.447203 1.711706e-02 4.704900e-17 0 
   10.471285 1.706851e-02 4.670000e-17 0 
   10.495422 1.701877e-02 4.635000e-17 0 
   10.519615 1.697670e-02 4.602300e-17 0 
   10.543863 1.693573e-02 4.570100e-17 0 
   10.568179 1.689331e-02 4.537700e-17 0 
   10.592540 1.685011e-02 4.505300e-17 0 
   10.616956 1.680614e-02 4.472900e-17 0 
   10.641429 1.676065e-02 4.440300e-17 0 
   10.665959 1.671439e-02 4.407700e-17 0 
   10.690544 1.666696e-02 4.375000e-17 0 
   10.715198 1.662069e-02 4.342800e-17 0 
   10.739898 1.658167e-02 4.312700e-17 0 
   10.764654 1.654117e-02 4.282400e-17 0 
   10.789467 1.649993e-02 4.252100e-17 0 
   10.814338 1.645797e-02 4.221800e-17 0 
   10.839266 1.641448e-02 4.191300e-17 0 
   10.864251 1.637024e-02 4.160800e-17 0 
   10.889305 1.632489e-02 4.130200e-17 0 
   10.914406 1.627873e-02 4.099600e-17 0 
   10.939565 1.623778e-02 4.070500e-17 0 
   10.964781 1.619931e-02 4.042200e-17 0 
   10.990055 1.615973e-02 4.013800e-17 0 
   11.015388 1.611945e-02 3.985400e-17 0 
   11.040792 1.607849e-02 3.957000e-17 0 
   11.066241 1.603595e-02 3.928400e-17 0 
   11.091750 1.599268e-02 3.899800e-17 0 
   11.117317 1.594825e-02 3.871100e-17 0 
   11.142944 1.590349e-02 3.842500e-17 0 
   11.168629 1.586713e-02 3.816100e-17 0 
   11.194373 1.582924e-02 3.789500e-17 0 
   11.220190 1.579114e-02 3.763000e-17 0 
   11.246053 1.575146e-02 3.736300e-17 0 
   11.271976 1.571108e-02 3.709600e-17 0 
   11.297959 1.566999e-02 3.682900e-17 0 
   11.324001 1.562775e-02 3.656100e-17 0 
   11.350104 1.558437e-02 3.629200e-17 0 
   11.376279 1.554417e-02 3.603200e-17 0 
   11.402502 1.550843e-02 3.578400e-17 0 
   11.428786 1.547160e-02 3.553500e-17 0 
   11.455130 1.543410e-02 3.528600e-17 0 
   11.481534 1.539548e-02 3.503600e-17 0 
   11.508001 1.535617e-02 3.478600e-17 0 
   11.534527 1.531573e-02 3.453500e-17 0 
   11.561128 1.527418e-02 3.428300e-17 0 
   11.587777 1.523189e-02 3.403100e-17 0 
   11.614488 1.519652e-02 3.379600e-17 0 
   11.641260 1.516141e-02 3.356300e-17 0 
   11.668094 1.512564e-02 3.333000e-17 0 
   11.694990 1.508877e-02 3.309600e-17 0 
   11.721948 1.505124e-02 3.286200e-17 0 
   11.748980 1.501261e-02 3.262700e-17 0 
   11.776062 1.497327e-02 3.239200e-17 0 
   11.803207 1.493279e-02 3.215600e-17 0 
   11.830414 1.489347e-02 3.192400e-17 0 
   11.857684 1.486004e-02 3.170600e-17 0 
   11.885017 1.482598e-02 3.148800e-17 0 
   11.912426 1.479085e-02 3.126900e-17 0 
   11.939885 1.475505e-02 3.105000e-17 0 
   11.967407 1.471812e-02 3.083000e-17 0 
   11.994993 1.468006e-02 3.060900e-17 0 
   12.022642 1.464182e-02 3.038900e-17 0 
   12.050355 1.460194e-02 3.016700e-17 0 
   12.078132 1.456722e-02 2.995700e-17 0 
   12.105987 1.453434e-02 2.975200e-17 0 
   12.133891 1.450130e-02 2.954800e-17 0 
   12.161861 1.446667e-02 2.934200e-17 0 
   12.189895 1.443141e-02 2.913600e-17 0 
   12.217994 1.439551e-02 2.893000e-17 0 
   12.246157 1.435847e-02 2.872300e-17 0 
   12.274398 1.432081e-02 2.851600e-17 0 
   12.302692 1.428248e-02 2.830900e-17 0 
   12.331051 1.425159e-02 2.811800e-17 0 
   12.359474 1.421960e-02 2.792600e-17 0 
   12.387964 1.418702e-02 2.773400e-17 0 
   12.416520 1.415332e-02 2.754100e-17 0 
   12.445140 1.411900e-02 2.734800e-17 0 
   12.473841 1.408358e-02 2.715400e-17 0 
   12.502594 1.404749e-02 2.696000e-17 0 
   12.531413 1.401026e-02 2.676500e-17 0 
   12.560299 1.397606e-02 2.657700e-17 0 
   12.589252 1.394600e-02 2.639800e-17 0 
   12.618270 1.391483e-02 2.621800e-17 0 
   12.647370 1.388258e-02 2.603700e-17 0 
   12.676523 1.384970e-02 2.585600e-17 0 
   12.705744 1.381622e-02 2.567500e-17 0 
   12.735031 1.378160e-02 2.549300e-17 0 
   12.764387 1.374637e-02 2.531100e-17 0 
   12.793809 1.370997e-02 2.512800e-17 0 
   12.823300 1.367952e-02 2.495700e-17 0 
   12.852873 1.365017e-02 2.478900e-17 0 
   12.882499 1.361913e-02 2.461900e-17 0 
   12.912195 1.358807e-02 2.445000e-17 0 
   12.941958 1.355587e-02 2.428000e-17 0 
   12.971790 1.352309e-02 2.411000e-17 0 
   13.001691 1.348914e-02 2.393900e-17 0 
   13.031661 1.345460e-02 2.376800e-17 0 
   13.061714 1.342119e-02 2.360000e-17 0 
   13.091823 1.339287e-02 2.344200e-17 0 
   13.122000 1.336342e-02 2.328300e-17 0 
   13.152247 1.333342e-02 2.312400e-17 0 
   13.182564 1.330286e-02 2.296500e-17 0 
   13.212950 1.327173e-02 2.280600e-17 0 
   13.243422 1.323947e-02 2.264600e-17 0 
   13.273948 1.320602e-02 2.248500e-17 0 
   13.304547 1.317257e-02 2.232500e-17 0 
   13.335214 1.314267e-02 2.217200e-17 0 
   13.365953 1.311460e-02 2.202300e-17 0 
   13.396763 1.308599e-02 2.187400e-17 0 
   13.427642 1.305684e-02 2.172500e-17 0 
   13.458609 1.302657e-02 2.157500e-17 0 
   13.489633 1.299631e-02 2.142600e-17 0 
   13.520727 1.296428e-02 2.127500e-17 0 
   13.551894 1.293229e-02 2.112500e-17 0 
   13.583131 1.289911e-02 2.097400e-17 0 
   13.614441 1.287277e-02 2.083500e-17 0 
   13.645839 1.284531e-02 2.069500e-17 0 
   13.677294 1.281730e-02 2.055500e-17 0 
   13.708820 1.278876e-02 2.041500e-17 0 
   13.740420 1.275968e-02 2.027500e-17 0 
   13.772092 1.272942e-02 2.013400e-17 0 
   13.803839 1.269862e-02 1.999300e-17 0 
   13.835658 1.266662e-02 1.985100e-17 0 
   13.867564 1.263729e-02 1.971400e-17 0 
   13.899530 1.261125e-02 1.958300e-17 0 
   13.931570 1.258471e-02 1.945200e-17 0 
   13.963683 1.255765e-02 1.932100e-17 0 
   13.995870 1.252942e-02 1.918900e-17 0 
   14.028131 1.250066e-02 1.905700e-17 0 
   14.060467 1.247137e-02 1.892500e-17 0 
   14.092894 1.244091e-02 1.879200e-17 0 
   14.125378 1.240987e-02 1.865900e-17 0 
   14.157939 1.238363e-02 1.853400e-17 0 
   14.190573 1.235822e-02 1.841100e-17 0 
   14.223284 1.233232e-02 1.828800e-17 0 
   14.256070 1.230591e-02 1.816500e-17 0 
   14.288947 1.227834e-02 1.804100e-17 0 
   14.321883 1.225023e-02 1.791700e-17 0 
   14.354897 1.222091e-02 1.779200e-17 0 
   14.387986 1.219106e-02 1.766700e-17 0 
   14.421152 1.216276e-02 1.754500e-17 0 
   14.454392 1.213810e-02 1.742900e-17 0 
   14.487711 1.211367e-02 1.731400e-17 0 
   14.521122 1.208807e-02 1.719800e-17 0 
   14.554594 1.206195e-02 1.708200e-17 0 
   14.588144 1.203463e-02 1.696500e-17 0 
   14.621770 1.200679e-02 1.684800e-17 0 
   14.655475 1.197844e-02 1.673100e-17 0 
   14.689256 1.194958e-02 1.661400e-17 0 
   14.723133 1.192383e-02 1.650200e-17 0 
   14.757070 1.190047e-02 1.639400e-17 0 
   14.791086 1.187590e-02 1.628500e-17 0 
   14.825181 1.185086e-02 1.617600e-17 0 
   14.859355 1.182534e-02 1.606700e-17 0 
   14.893606 1.179858e-02 1.595700e-17 0 
   14.927938 1.177207e-02 1.584800e-17 0 
   14.962363 1.174434e-02 1.573800e-17 0 
   14.996853 1.171608e-02 1.562800e-17 0 
   15.031422 1.169334e-02 1.552600e-17 0 
   15.066070 1.167013e-02 1.542400e-17 0 
   15.100798 1.164570e-02 1.532100e-17 0 
   15.135606 1.162156e-02 1.521900e-17 0 
   15.170513 1.159621e-02 1.511600e-17 0 
   15.205481 1.157035e-02 1.501300e-17 0 
   15.240531 1.154401e-02 1.491000e-17 0 
   15.275661 1.151639e-02 1.480600e-17 0 
   15.310872 1.149141e-02 1.470600e-17 0 
   15.346166 1.146908e-02 1.461000e-17 0 
   15.381539 1.144631e-02 1.451400e-17 0 
   15.417011 1.142310e-02 1.441800e-17 0 
   15.452548 1.139942e-02 1.432200e-17 0 
   15.488169 1.137447e-02 1.422500e-17 0 
   15.523870 1.134905e-02 1.412800e-17 0 
   15.559653 1.132315e-02 1.403100e-17 0 
   15.595519 1.129677e-02 1.393400e-17 0 
   15.631469 1.127398e-02 1.384200e-17 0 
   15.667517 1.125239e-02 1.375200e-17 0 
   15.703631 1.123035e-02 1.366200e-17 0 
   15.739830 1.120703e-02 1.357100e-17 0 
   15.776111 1.118326e-02 1.348000e-17 0 
   15.812477 1.115987e-02 1.339000e-17 0 
   15.848925 1.113435e-02 1.329800e-17 0 
   15.885475 1.110921e-02 1.320700e-17 0 
   15.922092 1.108443e-02 1.311700e-17 0 
   15.958794 1.106343e-02 1.303200e-17 0 
   15.995580 1.104200e-02 1.294700e-17 0 
   16.032452 1.102014e-02 1.286200e-17 0 
   16.069406 1.099784e-02 1.277700e-17 0 
   16.106448 1.097510e-02 1.269200e-17 0 
   16.143592 1.095107e-02 1.260600e-17 0 
   16.180805 1.092656e-02 1.252000e-17 0 
   16.218103 1.090159e-02 1.243400e-17 0 
   16.255486 1.087968e-02 1.235200e-17 0 
   16.292956 1.085999e-02 1.227300e-17 0 
   16.330513 1.083899e-02 1.219300e-17 0 
   16.368173 1.081760e-02 1.211300e-17 0 
   16.405903 1.079486e-02 1.203200e-17 0 
   16.443720 1.077257e-02 1.195200e-17 0 
   16.481623 1.074895e-02 1.187100e-17 0 
   16.519616 1.072579e-02 1.179100e-17 0 
   16.557694 1.070127e-02 1.171000e-17 0 
   16.595861 1.068181e-02 1.163500e-17 0 
   16.634134 1.066196e-02 1.156000e-17 0 
   16.672477 1.064167e-02 1.148500e-17 0 
   16.710908 1.062005e-02 1.140900e-17 0 
   16.749428 1.059893e-02 1.133400e-17 0 
   16.788036 1.057645e-02 1.125800e-17 0 
   16.826734 1.055353e-02 1.118200e-17 0 
   16.865539 1.053021e-02 1.110600e-17 0 
   16.904416 1.050832e-02 1.103200e-17 0 
   16.943381 1.048984e-02 1.096200e-17 0 
   16.982437 1.047000e-02 1.089100e-17 0 
   17.021583 1.044975e-02 1.082000e-17 0 
   17.060819 1.042909e-02 1.074900e-17 0 
   17.100145 1.040802e-02 1.067800e-17 0 
   17.139581 1.038656e-02 1.060700e-17 0 
   17.179089 1.036367e-02 1.053500e-17 0 
   17.218688 1.034133e-02 1.046400e-17 0 
   17.258378 1.032254e-02 1.039700e-17 0 
   17.298161 1.030336e-02 1.033000e-17 0 
   17.338034 1.028478e-02 1.026400e-17 0 
   17.377998 1.026480e-02 1.019700e-17 0 
   17.418075 1.024445e-02 1.013000e-17 0 
   17.458225 1.022366e-02 1.006300e-17 0 
   17.498469 1.020216e-02 9.995700e-18 0 
   17.538803 1.018024e-02 9.928400e-18 0 
   17.579231 1.015893e-02 9.862100e-18 0 
   17.619753 1.014124e-02 9.799700e-18 0 
   17.660388 1.012299e-02 9.737100e-18 0 
   17.701095 1.010423e-02 9.674400e-18 0 
   17.741898 1.008487e-02 9.611500e-18 0 
   17.782794 1.006500e-02 9.548500e-18 0 
   17.823784 1.004453e-02 9.485300e-18 0 
   17.864870 1.002355e-02 9.422000e-18 0 
   17.906050 1.000205e-02 9.358600e-18 0 
   17.947344 9.983282e-03 9.298100e-18 0 
   17.988714 9.965827e-03 9.239200e-18 0 
   18.030180 9.947999e-03 9.180300e-18 0 
   18.071741 9.929576e-03 9.121200e-18 0 
   18.113397 9.910552e-03 9.061900e-18 0 
   18.155150 9.891141e-03 9.002600e-18 0 
   18.197019 9.871030e-03 8.943000e-18 0 
   18.238964 9.850501e-03 8.883400e-18 0 
   18.281006 9.829461e-03 8.823700e-18 0 
   18.323145 9.812940e-03 8.768400e-18 0 
   18.365381 9.795946e-03 8.713000e-18 0 
   18.407714 9.778358e-03 8.657400e-18 0 
   18.450145 9.760288e-03 8.601700e-18 0 
   18.492695 9.741636e-03 8.545800e-18 0 
   18.535322 9.722467e-03 8.489800e-18 0 
   18.578047 9.702799e-03 8.433700e-18 0 
   18.620870 9.682626e-03 8.377500e-18 0 
   18.663794 9.664035e-03 8.323000e-18 0 
   18.706814 9.647865e-03 8.270900e-18 0 
   18.749934 9.631105e-03 8.218600e-18 0 
   18.793175 9.613888e-03 8.166200e-18 0 
   18.836495 9.596169e-03 8.113700e-18 0 
   18.879914 9.577842e-03 8.061000e-18 0 
   18.923434 9.559144e-03 8.008300e-18 0 
   18.967053 9.539826e-03 7.955400e-18 0 
   19.010775 9.520009e-03 7.902400e-18 0 
   19.054616 9.503698e-03 7.852600e-18 0 
   19.098539 9.487743e-03 7.803400e-18 0 
   19.142563 9.471316e-03 7.754100e-18 0 
   19.186688 9.454411e-03 7.704700e-18 0 
   19.230914 9.437026e-03 7.655200e-18 0 
   19.275242 9.419031e-03 7.605500e-18 0 
   19.319673 9.400669e-03 7.555800e-18 0 
   19.364228 9.381708e-03 7.505900e-18 0 
   19.408864 9.363355e-03 7.456800e-18 0 
   19.453603 9.348165e-03 7.410500e-18 0 
   19.498444 9.332507e-03 7.364100e-18 0 
   19.543389 9.316380e-03 7.317600e-18 0 
   19.588439 9.299777e-03 7.271000e-18 0 
   19.633613 9.282714e-03 7.224300e-18 0 
   19.678870 9.265146e-03 7.177500e-18 0 
   19.724231 9.246958e-03 7.130500e-18 0 
   19.769697 9.228406e-03 7.083500e-18 0 
   19.815267 9.212232e-03 7.038600e-18 0 
   19.860942 9.197423e-03 6.995000e-18 0 
   19.906723 9.182017e-03 6.951200e-18 0 
   19.952631 9.166160e-03 6.907300e-18 0 
   19.998623 9.149941e-03 6.863400e-18 0 
   20.044722 9.133109e-03 6.819300e-18 0 
   20.090927 9.115792e-03 6.775100e-18 0 
   20.137238 9.098120e-03 6.730900e-18 0 
   20.183656 9.079956e-03 6.686600e-18 0 
   20.230203 9.065816e-03 6.645500e-18 0 
   20.276834 9.051193e-03 6.604300e-18 0 
   20.323573 9.036105e-03 6.563000e-18 0 
   20.370422 9.020548e-03 6.521600e-18 0 
   20.417377 9.004515e-03 6.480100e-18 0 
   20.464441 8.988003e-03 6.438500e-18 0 
   20.511613 8.971145e-03 6.396900e-18 0 
   20.558916 8.953679e-03 6.355100e-18 0 
   20.606305 8.937680e-03 6.314600e-18 0 
   20.653805 8.923762e-03 6.275800e-18 0 
   20.701412 8.909380e-03 6.236900e-18 0 
   20.749131 8.894533e-03 6.197900e-18 0 
   20.796959 8.879358e-03 6.158900e-18 0 
   20.844898 8.863566e-03 6.119700e-18 0 
   20.892970 8.847456e-03 6.080500e-18 0 
   20.941130 8.830697e-03 6.041100e-18 0 
   20.989400 8.813594e-03 6.001700e-18 0 
   21.037783 8.799688e-03 5.964700e-18 0 
   21.086275 8.786056e-03 5.928100e-18 0 
   21.134881 8.771964e-03 5.891400e-18 0 
   21.183622 8.757425e-03 5.854600e-18 0 
   21.232452 8.742393e-03 5.817700e-18 0 
   21.281394 8.726886e-03 5.780700e-18 0 
   21.330448 8.711049e-03 5.743700e-18 0 
   21.379617 8.694729e-03 5.706600e-18 0 
   21.428898 8.678837e-03 5.670000e-18 0 
   21.478294 8.665842e-03 5.635500e-18 0 
   21.527827 8.652407e-03 5.600900e-18 0 
   21.577450 8.638645e-03 5.566300e-18 0 
   21.627188 8.624414e-03 5.531600e-18 0 
   21.677039 8.609555e-03 5.496700e-18 0 
   21.727006 8.594375e-03 5.461800e-18 0 
   21.777089 8.578872e-03 5.426900e-18 0 
   21.827311 8.562745e-03 5.391800e-18 0 
   21.877623 8.548818e-03 5.358300e-18 0 
   21.928053 8.536183e-03 5.325800e-18 0 
   21.978598 8.522929e-03 5.293100e-18 0 
   22.029261 8.509370e-03 5.260400e-18 0 
   22.080041 8.495341e-03 5.227600e-18 0 
   22.130936 8.480838e-03 5.194700e-18 0 
   22.181973 8.466040e-03 5.161800e-18 0 
   22.233105 8.450575e-03 5.128700e-18 0 
   22.284355 8.434954e-03 5.095700e-18 0 
   22.335720 8.422832e-03 5.065000e-18 0 
   22.387206 8.410419e-03 5.034300e-18 0 
   22.438811 8.397377e-03 5.003400e-18 0 
   22.490558 8.384053e-03 4.972500e-18 0 
   22.542400 8.370239e-03 4.941500e-18 0 
   22.594363 8.356120e-03 4.910500e-18 0 
   22.646444 8.341350e-03 4.879300e-18 0 
   22.698645 8.326265e-03 4.848100e-18 0 
   22.750967 8.312588e-03 4.817900e-18 0 
   22.803411 8.300689e-03 4.788900e-18 0 
   22.855998 8.288345e-03 4.759800e-18 0 
   22.908683 8.275693e-03 4.730700e-18 0 
   22.961489 8.262572e-03 4.701500e-18 0 
   23.014417 8.248977e-03 4.672200e-18 0 
   23.067467 8.235081e-03 4.642900e-18 0 
   23.120639 8.220703e-03 4.613500e-18 0 
   23.173934 8.205838e-03 4.584000e-18 0 
   23.227378 8.193915e-03 4.556300e-18 0 
   23.280919 8.182230e-03 4.528900e-18 0 
   23.334583 8.170082e-03 4.501400e-18 0 
   23.388370 8.157647e-03 4.473900e-18 0 
   23.442281 8.144741e-03 4.446300e-18 0 
   23.496319 8.131358e-03 4.418600e-18 0 
   23.550505 8.117695e-03 4.390900e-18 0 
   23.604791 8.103529e-03 4.363100e-18 0 
   23.659202 8.089806e-03 4.335700e-18 0 
   23.713738 8.078784e-03 4.309900e-18 0 
   23.768398 8.067297e-03 4.284000e-18 0 
   23.823187 8.055344e-03 4.258000e-18 0 
   23.878102 8.043109e-03 4.232000e-18 0 
   23.933167 8.030416e-03 4.205900e-18 0 
   23.988336 8.017417e-03 4.179800e-18 0 
   24.043630 8.003934e-03 4.153600e-18 0 
   24.099053 7.989963e-03 4.127300e-18 0 
   24.154603 7.978025e-03 4.102200e-18 0 
   24.210281 7.967174e-03 4.077800e-18 0 
   24.266114 7.955875e-03 4.053300e-18 0 
   24.322048 7.944284e-03 4.028800e-18 0 
   24.378113 7.932219e-03 4.004200e-18 0 
   24.434306 7.919674e-03 3.979500e-18 0 
   24.490630 7.906844e-03 3.954800e-18 0 
   24.547081 7.893726e-03 3.930100e-18 0 
   24.603664 7.880118e-03 3.905300e-18 0 
   24.660405 7.869679e-03 3.882200e-18 0 
   24.717248 7.858959e-03 3.859100e-18 0 
   24.774223 7.847972e-03 3.836000e-18 0 
   24.831330 7.836510e-03 3.812800e-18 0 
   24.888567 7.824570e-03 3.789500e-18 0 
   24.945937 7.812352e-03 3.766200e-18 0 
   25.003441 7.799855e-03 3.742900e-18 0 
   25.061102 7.786673e-03 3.719400e-18 0 
   25.118870 7.774870e-03 3.696700e-18 0 
   25.176770 7.764693e-03 3.674900e-18 0 
   25.234805 7.754257e-03 3.653100e-18 0 
   25.292973 7.743347e-03 3.631200e-18 0 
   25.351275 7.731955e-03 3.609200e-18 0 
   25.409739 7.720310e-03 3.587200e-18 0 
   25.468311 7.708377e-03 3.565200e-18 0 
   25.527017 7.695951e-03 3.543100e-18 0 
   26.121603 7.583506e-03 3.334200e-18 0 
   26.730066 7.478158e-03 3.139900e-18 0 
   27.352675 7.375947e-03 2.957600e-18 0 
   27.989816 7.276496e-03 2.786400e-18 0 
   28.641766 7.179983e-03 2.625700e-18 0 
   29.308934 7.086004e-03 2.474700e-18 0 
   29.991641 6.994800e-03 2.332900e-18 0 
   30.690219 6.910330e-03 2.201000e-18 0 
   31.405103 6.828349e-03 2.077000e-18 0 
   32.136603 6.748751e-03 1.960400e-18 0 
   32.885178 6.671372e-03 1.850700e-18 0 
   33.651153 6.596230e-03 1.747500e-18 0 
   34.435006 6.523314e-03 1.650400e-18 0 
