# NGC 6240       
# 
# An Atlas of Galaxy Spectral Energy Distributions from the Ultraviolet to the Mid-Infrared
# Brown et al. (2014)
# http://dx.doi.org/10.5072/03/529D3551F0117
# http://dx.doi.org/10.17909/t9-5bxk-dh29
# 
# The Spectral Energy Distributions of Active Galactic Nuclei
# Brown et al. (2019)
# http://dx.doi.org/10.17909/t9-3dbt-8734
# 
# Column 1: Observed wavelength (um)
# Column 2: f_nu (Jy)
# Column 3: f_lam (erg/s/cm2/A)
# Column 4: Source (0 = model, 1 = Optical Spectrun, 2 = Akari, 3 = Spitzer IRS)
# 
    0.010257 9.559372e-16 2.725900e-24 0 
    0.010447 1.546366e-15 4.250600e-24 0 
    0.010666 2.276523e-15 6.003300e-24 0 
    0.010864 3.389957e-15 8.616600e-24 0 
    0.011066 5.130105e-15 1.256800e-23 0 
    0.011272 8.671707e-15 2.047500e-23 0 
    0.011668 1.709901e-14 3.767900e-23 0 
    0.012078 3.132246e-14 6.441500e-23 0 
    0.012388 1.471552e-13 2.876700e-22 0 
    0.012794 2.430362e-13 4.454300e-22 0 
    0.013002 3.017297e-13 5.354500e-22 0 
    0.013122 3.424281e-13 5.966100e-22 0 
    0.013428 4.607852e-13 7.666500e-22 0 
    0.013521 5.813900e-13 9.540500e-22 0 
    0.013740 7.004019e-13 1.113000e-21 0 
    0.014028 1.062441e-12 1.619700e-21 0 
    0.014355 1.387443e-12 2.019900e-21 0 
    0.014655 4.635503e-12 6.475100e-21 0 
    0.015066 1.479106e-11 1.954900e-20 0 
    0.015453 1.949524e-11 2.449200e-20 0 
    0.015885 2.592640e-11 3.082400e-20 0 
    0.016293 3.432864e-11 3.879500e-20 0 
    0.016596 4.183831e-11 4.557100e-20 0 
    0.017022 5.501261e-11 5.695900e-20 0 
    0.017418 6.971523e-11 6.893700e-20 0 
    0.017742 8.379929e-11 7.986500e-20 0 
    0.018113 1.044992e-10 9.555500e-20 0 
    0.018450 1.236002e-10 1.089300e-19 0 
    0.018664 1.380375e-10 1.188800e-19 0 
    0.019055 1.697702e-10 1.402700e-19 0 
    0.019588 2.186136e-10 1.709300e-19 0 
    0.019861 2.544657e-10 1.935300e-19 0 
    0.020277 3.058595e-10 2.231700e-19 0 
    0.020701 3.692941e-10 2.585300e-19 0 
    0.020989 4.219768e-10 2.873600e-19 0 
    0.021528 5.013654e-10 3.245400e-19 0 
    0.022131 6.713920e-10 4.112400e-19 0 
    0.022542 7.922099e-10 4.677100e-19 0 
    0.022856 8.785320e-10 5.045200e-19 0 
    0.023281 1.034290e-09 5.724800e-19 0 
    0.023550 1.727993e-09 9.347200e-19 0 
    0.023988 3.179986e-09 1.657900e-18 0 
    0.024604 4.626742e-09 2.292900e-18 0 
    0.025177 5.047808e-09 2.389000e-18 0 
    0.025823 6.221722e-09 2.799100e-18 0 
    0.026303 5.844961e-09 2.534500e-18 0 
    0.026607 7.255600e-09 3.074700e-18 0 
    0.027040 8.309164e-09 3.409300e-18 0 
    0.027542 9.234226e-09 3.652000e-18 0 
    0.028054 1.019174e-08 3.884900e-18 0 
    0.028576 1.127463e-08 4.142100e-18 0 
    0.029107 1.241484e-08 4.396100e-18 0 
    0.029717 1.323679e-08 4.496700e-18 0 
    0.030339 1.501753e-08 4.894600e-18 0 
    0.030832 1.616041e-08 5.100000e-18 0 
    0.031550 1.841793e-08 5.550900e-18 0 
    0.032584 2.207734e-08 6.238200e-18 0 
    0.033574 2.562457e-08 6.819800e-18 0 
    0.034594 2.933301e-08 7.353200e-18 0 
    0.035645 3.334601e-08 7.873500e-18 0 
    0.036559 3.730518e-08 8.373400e-18 0 
    0.037497 4.212123e-08 8.987300e-18 0 
    0.038459 4.647562e-08 9.426500e-18 0 
    0.039446 4.988235e-08 9.617500e-18 0 
    0.040458 5.736612e-08 1.051400e-17 0 
    0.041495 6.431628e-08 1.120600e-17 0 
    0.042462 6.967475e-08 1.159300e-17 0 
    0.043251 7.375969e-08 1.182900e-17 0 
    0.044055 7.844887e-08 1.212600e-17 0 
    0.045186 8.695237e-08 1.277600e-17 0 
    0.046238 9.331451e-08 1.309400e-17 0 
    0.047098 9.833376e-08 1.329900e-17 0 
    0.048195 1.057707e-07 1.366100e-17 0 
    0.049204 1.148377e-07 1.423000e-17 0 
    0.050234 1.193342e-07 1.418700e-17 0 
    0.051168 1.301664e-07 1.491500e-17 0 
    0.051880 1.319121e-07 1.470300e-17 0 
    0.052481 1.465907e-07 1.596700e-17 0 
    0.053333 1.534085e-07 1.618000e-17 0 
    0.054325 1.601619e-07 1.628100e-17 0 
    0.055335 1.630291e-07 1.597300e-17 0 
    0.056364 1.725692e-07 1.629600e-17 0 
    0.057412 1.895279e-07 1.725000e-17 0 
    0.058345 2.057689e-07 1.813400e-17 0 
    0.059429 2.133328e-07 1.812100e-17 0 
    0.060395 2.279236e-07 1.874600e-17 0 
    0.061518 2.309154e-07 1.830500e-17 0 
    0.062517 2.213834e-07 1.699300e-17 0 
    0.063533 2.684369e-07 1.995100e-17 0 
    0.064565 2.789515e-07 2.007500e-17 0 
    0.065615 2.966371e-07 2.067000e-17 0 
    0.066527 3.104286e-07 2.104200e-17 0 
    0.067453 3.196614e-07 2.107700e-17 0 
    0.068077 3.392284e-07 2.195900e-17 0 
    0.069183 3.557648e-07 2.229900e-17 0 
    0.070146 3.538960e-07 2.157700e-17 0 
    0.071121 4.023290e-07 2.386200e-17 0 
    0.072277 3.955934e-07 2.271800e-17 0 
    0.073282 4.497049e-07 2.512200e-17 0 
    0.074302 4.716777e-07 2.563100e-17 0 
    0.075336 4.946966e-07 2.614900e-17 0 
    0.076384 5.296768e-07 2.723500e-17 0 
    0.077268 5.581475e-07 2.804600e-17 0 
    0.078343 5.564576e-07 2.719900e-17 0 
    0.079433 6.325586e-07 3.007600e-17 0 
    0.080353 6.589181e-07 3.061600e-17 0 
    0.081470 7.054851e-07 3.188700e-17 0 
    0.082414 7.468105e-07 3.298600e-17 0 
    0.083560 7.867858e-07 3.380500e-17 0 
    0.084528 8.522535e-07 3.578400e-17 0 
    0.085507 7.486435e-07 3.071800e-17 0 
    0.086497 9.225223e-07 3.699100e-17 0 
    0.087498 9.608920e-07 3.765300e-17 0 
    0.088716 1.045468e-06 3.985000e-17 0 
    0.089743 1.127184e-06 4.198700e-17 0 
    0.090573 1.226719e-06 4.486100e-17 0 
    0.091622 1.310480e-06 4.683300e-17 0 
    0.092683 1.327720e-06 4.636900e-17 0 
    0.093756 2.050135e-06 6.996900e-17 0 
    0.094842 1.359745e-05 4.535000e-16 0 
    0.095719 3.035168e-05 9.938201e-16 0 
    0.096828 6.121369e-05 1.958700e-15 0 
    0.097949 9.429949e-05 2.948700e-15 0 
    0.098855 9.890881e-05 3.036400e-15 0 
    0.100000 1.431800e-05 4.295400e-16 0 
    0.100925 7.304616e-05 2.151400e-15 0 
    0.101859 9.105671e-05 2.632900e-15 0 
    0.103039 1.592060e-04 4.498600e-15 0 
    0.103992 1.646915e-04 4.568700e-15 0 
    0.104954 7.488230e-05 2.039400e-15 0 
    0.105925 1.074176e-04 2.872100e-15 0 
    0.107152 2.470065e-04 6.454000e-15 0 
    0.108143 2.496902e-04 6.405100e-15 0 
    0.109144 1.832725e-04 4.615500e-15 0 
    0.110154 2.381157e-04 5.887200e-15 0 
    0.111173 1.751744e-04 4.252000e-15 0 
    0.112202 2.698724e-04 6.431000e-15 0 
    0.113240 2.653611e-04 6.208100e-15 0 
    0.114288 2.514909e-04 5.776200e-15 0 
    0.115345 2.260429e-04 5.097000e-15 0 
    0.116145 3.243004e-04 7.212200e-15 0 
    0.117220 2.955404e-04 6.452600e-15 0 
    0.118304 3.336421e-04 7.151600e-15 0 
    0.119399 3.515179e-04 7.397200e-15 0 
    0.120504 2.267827e-04 4.685200e-15 0 
    0.121339 3.567371e-04 7.268900e-15 0 
    0.122462 2.172707e-04 4.346300e-15 0 
    0.123311 1.405200e-04 2.772400e-15 0 
    0.124451 1.208894e-04 2.341600e-15 0 
    0.125603 2.636504e-04 5.013600e-15 0 
    0.126474 4.464392e-04 8.373000e-15 0 
    0.127644 5.062883e-04 9.322200e-15 0 
    0.128529 4.787686e-04 8.694500e-15 0 
    0.129718 4.024905e-04 7.175900e-15 0 
    0.130617 5.760864e-04 1.013000e-14 0 
    0.131522 6.268808e-04 1.087200e-14 0 
    0.132739 4.527015e-04 7.707900e-15 0 
    0.133660 4.534493e-04 7.614600e-15 0 
    0.134586 6.371687e-04 1.055300e-14 0 
    0.135831 6.163550e-04 1.002200e-14 0 
    0.136773 5.206616e-04 8.349800e-15 0 
    0.137721 6.938155e-04 1.097400e-14 0 
    0.138676 6.791760e-04 1.059500e-14 0 
    0.139959 5.936954e-04 9.092500e-15 0 
    0.140929 6.520163e-04 9.848700e-15 0 
    0.141906 6.713780e-04 1.000200e-14 0 
    0.142889 5.870032e-04 8.625100e-15 0 
    0.143880 6.227757e-04 9.025100e-15 0 
    0.144877 6.382930e-04 9.123100e-15 0 
    0.145881 6.850156e-04 9.656600e-15 0 
    0.146893 6.861016e-04 9.539100e-15 0 
    0.147571 7.467401e-04 1.028700e-14 0 
    0.148252 7.762128e-04 1.059500e-14 0 
    0.148936 7.529287e-04 1.018300e-14 0 
    0.149969 6.877356e-04 9.173600e-15 0 
    0.151008 7.032193e-04 9.251500e-15 0 
    0.152055 7.409037e-04 9.613500e-15 0 
    0.153109 7.734496e-04 9.898100e-15 0 
    0.154170 7.296182e-04 9.209100e-15 0 
    0.154882 6.322231e-04 7.906600e-15 0 
    0.155239 7.026829e-04 8.747400e-15 0 
    0.156315 6.798540e-04 8.347100e-15 0 
    0.157398 5.768574e-04 6.985400e-15 0 
    0.158125 6.758366e-04 8.108900e-15 0 
    0.159221 6.434251e-04 7.614100e-15 0 
    0.160325 6.609211e-04 7.713800e-15 0 
    0.161436 7.240950e-04 8.335200e-15 0 
    0.162555 7.896587e-04 8.965200e-15 0 
    0.163305 8.150790e-04 9.169000e-15 0 
    0.164437 8.181620e-04 9.077400e-15 0 
    0.165577 8.423213e-04 9.217200e-15 0 
    0.166341 7.911031e-04 8.577400e-15 0 
    0.167494 8.727019e-04 9.332300e-15 0 
    0.168655 9.025917e-04 9.519500e-15 0 
    0.169434 8.284137e-04 8.657000e-15 0 
    0.170608 9.394409e-04 9.682600e-15 0 
    0.171396 8.121158e-04 8.293500e-15 0 
    0.171791 9.560756e-04 9.718800e-15 0 
    0.172584 1.033349e-03 1.040800e-14 0 
    0.173780 9.724236e-04 9.660000e-15 0 
    0.174582 9.345432e-04 9.198600e-15 0 
    0.175792 8.814723e-04 8.557200e-15 0 
    0.176604 8.891042e-04 8.552100e-15 0 
    0.177828 9.807495e-04 9.304200e-15 0 
    0.178649 9.667088e-04 9.086900e-15 0 
    0.179887 1.071256e-03 9.931500e-15 0 
    0.180717 9.696785e-04 8.907400e-15 0 
    0.181970 1.012101e-03 9.169500e-15 0 
    0.182810 1.051845e-03 9.442200e-15 0 
    0.184077 1.168219e-03 1.034300e-14 0 
    0.184927 1.172877e-03 1.028900e-14 0 
    0.185780 1.064131e-03 9.249500e-15 0 
    0.187068 1.115774e-03 9.565300e-15 0 
    0.187932 1.072268e-03 9.108000e-15 0 
    0.188799 9.795263e-04 8.244000e-15 0 
    0.190108 9.876385e-04 8.198200e-15 0 
    0.190985 1.043059e-03 8.578900e-15 0 
    0.192309 1.185445e-03 9.616200e-15 0 
    0.193197 1.080424e-03 8.683900e-15 0 
    0.194089 1.045458e-03 8.325800e-15 0 
    0.194984 1.135037e-03 8.956400e-15 0 
    0.196336 1.095401e-03 8.525000e-15 0 
    0.197242 1.092137e-03 8.421700e-15 0 
    0.198153 1.142823e-03 8.731700e-15 0 
    0.199067 1.209701e-03 9.158000e-15 0 
    0.200447 1.140856e-03 8.518300e-15 0 
    0.201372 1.299947e-03 9.617200e-15 0 
    0.202302 1.354026e-03 9.925400e-15 0 
    0.203236 1.283273e-03 9.320500e-15 0 
    0.204174 1.253181e-03 9.018500e-15 0 
    0.205589 1.322966e-03 9.390100e-15 0 
    0.206538 1.271263e-03 8.940400e-15 0 
    0.207491 1.364334e-03 9.507000e-15 0 
    0.208449 1.293029e-03 8.927500e-15 0 
    0.209411 1.378138e-03 9.427900e-15 0 
    0.210378 1.321217e-03 8.955600e-15 0 
    0.211349 1.332473e-03 8.949100e-15 0 
    0.212324 1.466666e-03 9.760100e-15 0 
    0.212814 1.409856e-03 9.338900e-15 0 
    0.213796 1.502614e-03 9.862100e-15 0 
    0.214783 1.424041e-03 9.260700e-15 0 
    0.215774 1.439447e-03 9.275100e-15 0 
    0.216770 1.475258e-03 9.418700e-15 0 
    0.217771 1.511947e-03 9.564400e-15 0 
    0.218776 1.390610e-03 8.716200e-15 0 
    0.219786 1.468483e-03 9.119900e-15 0 
    0.220801 1.554297e-03 9.564300e-15 0 
    0.221820 1.507286e-03 9.190000e-15 0 
    0.222844 1.509581e-03 9.119600e-15 0 
    0.223872 1.501455e-03 8.987400e-15 0 
    0.224905 1.600187e-03 9.490600e-15 0 
    0.225944 1.562525e-03 9.182200e-15 0 
    0.226986 1.473926e-03 8.582200e-15 0 
    0.228034 1.435914e-03 8.284200e-15 0 
    0.229087 1.591395e-03 9.097000e-15 0 
    0.230144 1.522286e-03 8.622200e-15 0 
    0.231207 1.440960e-03 8.086700e-15 0 
    0.232274 1.502685e-03 8.355800e-15 0 
    0.232809 1.570320e-03 8.691800e-15 0 
    0.233884 1.652813e-03 9.064500e-15 0 
    0.234963 1.561216e-03 8.483700e-15 0 
    0.236048 1.587462e-03 8.547200e-15 0 
    0.237137 1.496030e-03 7.981100e-15 0 
    0.238232 1.107072e-03 5.851900e-15 0 
    0.239332 1.372214e-03 7.186900e-15 0 
    0.240436 1.332470e-03 6.914800e-15 0 
    0.240991 1.502366e-03 7.760600e-15 0 
    0.242103 1.345911e-03 6.888700e-15 0 
    0.243220 1.423174e-03 7.217400e-15 0 
    0.244343 1.304661e-03 6.555700e-15 0 
    0.245471 1.437929e-03 7.159100e-15 0 
    0.246604 1.380325e-03 6.809300e-15 0 
    0.247172 1.445769e-03 7.099400e-15 0 
    0.248313 1.604499e-03 7.806600e-15 0 
    0.249460 1.554471e-03 7.493800e-15 0 
    0.250611 1.693644e-03 8.089900e-15 0 
    0.251768 1.694591e-03 8.020200e-15 0 
    0.252348 1.671800e-03 7.876000e-15 0 
    0.253513 1.612248e-03 7.525800e-15 0 
    0.254683 1.654515e-03 7.652300e-15 0 
    0.255859 1.584596e-03 7.261700e-15 0 
    0.256448 1.832448e-03 8.359000e-15 0 
    0.257632 1.560547e-03 7.053400e-15 0 
    0.258226 1.612138e-03 7.253100e-15 0 
    0.258821 1.543545e-03 6.912600e-15 0 
    0.259418 1.613036e-03 7.190600e-15 0 
    0.260615 1.595467e-03 7.047100e-15 0 
    0.261818 1.816060e-03 7.947900e-15 0 
    0.263027 1.739289e-03 7.542100e-15 0 
    0.263633 1.894495e-03 8.177400e-15 0 
    0.264850 1.869565e-03 7.995800e-15 0 
    0.266072 1.844947e-03 7.818200e-15 0 
    0.266686 1.770544e-03 7.468400e-15 0 
    0.267917 1.755296e-03 7.336200e-15 0 
    0.269154 1.903680e-03 7.883400e-15 0 
    0.269774 2.073567e-03 8.547500e-15 0 
    0.271019 2.371155e-03 9.684600e-15 0 
    0.272270 2.553811e-03 1.033500e-14 0 
    0.272898 2.164368e-03 8.718700e-15 0 
    0.274157 2.347311e-03 9.369000e-15 0 
    0.274789 2.380647e-03 9.458400e-15 0 
    0.276058 2.233276e-03 8.791500e-15 0 
    0.277332 2.388842e-03 9.317700e-15 0 
    0.277971 2.194356e-03 8.519800e-15 0 
    0.279254 2.175460e-03 8.369000e-15 0 
    0.279898 2.347884e-03 8.990800e-15 0 
    0.281190 1.918317e-03 7.278500e-15 0 
    0.282488 2.028449e-03 7.625800e-15 0 
    0.283139 2.179145e-03 8.154700e-15 0 
    0.284446 2.336317e-03 8.662700e-15 0 
    0.285102 2.121572e-03 7.830300e-15 0 
    0.286418 1.636439e-03 5.984400e-15 0 
    0.287078 1.794835e-03 6.533500e-15 0 
    0.288403 2.361957e-03 8.519100e-15 0 
    0.289734 2.657752e-03 9.498100e-15 0 
    0.290402 2.574162e-03 9.157100e-15 0 
    0.291743 2.482463e-03 8.749900e-15 0 
    0.292415 2.285618e-03 8.019100e-15 0 
    0.293765 2.800596e-03 9.735800e-15 0 
    0.294442 2.919924e-03 1.010400e-14 0 
    0.295801 2.868280e-03 9.834300e-15 0 
    0.296483 2.922425e-03 9.973900e-15 0 
    0.297852 3.396041e-03 1.148400e-14 0 
    0.299916 3.238485e-03 1.080100e-14 0 
    0.301995 3.211490e-03 1.056400e-14 0 
    0.304089 3.404750e-03 1.104600e-14 0 
    0.306196 3.471159e-03 1.110700e-14 0 
    0.308319 3.620858e-03 1.142700e-14 0 
    0.310456 3.699819e-03 1.151600e-14 0 
    0.312608 3.780607e-03 1.160600e-14 0 
    0.314775 3.916763e-03 1.185900e-14 0 
    0.316228 4.028673e-03 1.208600e-14 0 
    0.318420 4.164140e-03 1.232100e-14 0 
    0.320627 4.139138e-03 1.207900e-14 0 
    0.322849 4.229366e-03 1.217300e-14 0 
    0.325087 4.371342e-03 1.240900e-14 0 
    0.326588 4.072623e-03 1.145500e-14 0 
    0.328852 4.418028e-03 1.225600e-14 0 
    0.331131 4.098267e-03 1.121300e-14 0 
    0.332660 4.718657e-03 1.279200e-14 0 
    0.334966 5.131007e-03 1.371900e-14 0 
    0.337287 5.146996e-03 1.357300e-14 0 
    0.338844 5.173576e-03 1.351800e-14 0 
    0.340408 5.140717e-03 1.330900e-14 0 
    0.341193 5.396891e-03 1.390800e-14 0 
    0.341979 5.061191e-03 1.298300e-14 0 
    0.342768 5.276863e-03 1.347400e-14 0 
    0.343558 5.064364e-03 1.287200e-14 0 
    0.344350 5.195646e-03 1.314500e-14 0 
    0.345144 5.256959e-03 1.323900e-14 0 
    0.345939 4.885084e-03 1.224600e-14 0 
    0.346737 5.046309e-03 1.259200e-14 0 
    0.347536 5.663837e-03 1.406800e-14 0 
    0.348337 6.028510e-03 1.490500e-14 0 
    0.349140 5.525263e-03 1.359800e-14 0 
    0.349945 5.616493e-03 1.375900e-14 0 
    0.350752 6.145607e-03 1.498600e-14 0 
    0.351560 6.063131e-03 1.471700e-14 0 
    0.352371 6.036918e-03 1.458600e-14 0 
    0.353183 5.139631e-03 1.236100e-14 0 
    0.353997 5.689250e-03 1.362000e-14 0 
    0.354813 5.237957e-03 1.248200e-14 0 
    0.355631 5.933289e-03 1.407400e-14 0 
    0.356451 5.217820e-03 1.232000e-14 0 
    0.357273 5.686540e-03 1.336500e-14 0 
    0.358096 5.664895e-03 1.325300e-14 0 
    0.358922 6.245007e-03 1.454300e-14 0 
    0.359749 6.107730e-03 1.415800e-14 0 
    0.360579 6.197921e-03 1.430100e-14 0 
    0.361410 5.605219e-03 1.287400e-14 0 
    0.362243 6.294186e-03 1.439000e-14 0 
    0.363078 6.843508e-03 1.557400e-14 0 
    0.363915 6.864943e-03 1.555100e-14 0 
    0.364754 6.745406e-03 1.521000e-14 0 
    0.365595 6.086417e-03 1.366100e-14 0 
    0.366437 5.939031e-03 1.326900e-14 0 
    0.367282 5.433165e-03 1.208300e-14 0 
    0.367360 6.045911e-03 1.344000e-14 1 
    0.367635 6.707767e-03 1.488900e-14 1 
    0.367910 5.373253e-03 1.190900e-14 1 
    0.368185 2.888246e-03 6.391800e-15 1 
    0.368460 6.816196e-03 1.506200e-14 1 
    0.368735 8.912086e-03 1.966400e-14 1 
    0.369010 5.077265e-03 1.118600e-14 1 
    0.369285 6.479460e-03 1.425400e-14 1 
    0.369560 3.726757e-03 8.186200e-15 1 
    0.369835 5.467926e-03 1.199300e-14 1 
    0.370110 7.612514e-03 1.667200e-14 1 
    0.370385 6.042087e-03 1.321300e-14 1 
    0.370660 8.048239e-03 1.757400e-14 1 
    0.370935 6.334313e-03 1.381100e-14 1 
    0.371210 5.613385e-03 1.222100e-14 1 
    0.371485 5.268422e-03 1.145300e-14 1 
    0.371760 6.889544e-03 1.495500e-14 1 
    0.372035 7.980262e-03 1.729700e-14 1 
    0.372310 7.351201e-03 1.591000e-14 1 
    0.372585 6.866480e-03 1.483900e-14 1 
    0.372860 7.870645e-03 1.698400e-14 1 
    0.373135 6.795804e-03 1.464300e-14 1 
    0.373410 9.276148e-03 1.995800e-14 1 
    0.373685 8.025139e-03 1.724100e-14 1 
    0.373960 7.155458e-03 1.535000e-14 1 
    0.374235 6.766838e-03 1.449500e-14 1 
    0.374510 5.955344e-03 1.273800e-14 1 
    0.374785 6.340068e-03 1.354100e-14 1 
    0.375060 9.161838e-03 1.953900e-14 1 
    0.375335 6.038431e-03 1.285900e-14 1 
    0.375610 8.855772e-03 1.883100e-14 1 
    0.375885 7.440778e-03 1.579900e-14 1 
    0.376160 6.247064e-03 1.324500e-14 1 
    0.376435 9.634409e-03 2.039700e-14 1 
    0.376710 6.688239e-03 1.413900e-14 1 
    0.376985 6.029107e-03 1.272700e-14 1 
    0.377260 6.266100e-03 1.320800e-14 1 
    0.377535 5.995875e-03 1.262000e-14 1 
    0.377810 7.662781e-03 1.610500e-14 1 
    0.378085 7.614854e-03 1.598100e-14 1 
    0.378360 5.842686e-03 1.224400e-14 1 
    0.378635 6.601456e-03 1.381400e-14 1 
    0.378910 7.302591e-03 1.525900e-14 1 
    0.379185 7.038093e-03 1.468500e-14 1 
    0.379460 6.718569e-03 1.399800e-14 1 
    0.379735 1.024147e-02 2.130700e-14 1 
    0.380010 9.109713e-03 1.892500e-14 1 
    0.380285 9.605923e-03 1.992700e-14 1 
    0.380560 9.769957e-03 2.023800e-14 1 
    0.380835 1.410372e-02 2.917300e-14 1 
    0.381110 1.614735e-02 3.335200e-14 1 
    0.381385 2.228121e-02 4.595500e-14 1 
    0.381660 3.002871e-02 6.184500e-14 1 
    0.381935 3.259611e-02 6.703600e-14 1 
    0.382210 3.112525e-02 6.391900e-14 1 
    0.382485 2.504908e-02 5.136700e-14 1 
    0.382760 1.765534e-02 3.615300e-14 1 
    0.383035 1.403924e-02 2.870700e-14 1 
    0.383310 8.203400e-03 1.675000e-14 1 
    0.383585 9.459958e-03 1.928800e-14 1 
    0.383860 7.572240e-03 1.541700e-14 1 
    0.384135 7.045484e-03 1.432400e-14 1 
    0.384410 6.062061e-03 1.230700e-14 1 
    0.384685 7.053342e-03 1.429900e-14 1 
    0.384960 7.992608e-03 1.618000e-14 1 
    0.385235 6.355240e-03 1.284700e-14 1 
    0.385510 7.017245e-03 1.416500e-14 1 
    0.385785 7.301107e-03 1.471700e-14 1 
    0.386060 1.014183e-02 2.041400e-14 1 
    0.386335 8.790607e-03 1.766900e-14 1 
    0.386610 7.946180e-03 1.594900e-14 1 
    0.386885 1.008744e-02 2.021800e-14 1 
    0.387160 1.087423e-02 2.176400e-14 1 
    0.387435 1.108982e-02 2.216400e-14 1 
    0.387710 1.007088e-02 2.009900e-14 1 
    0.387985 9.815714e-03 1.956200e-14 1 
    0.388260 8.677432e-03 1.726900e-14 1 
    0.388535 8.848740e-03 1.758500e-14 1 
    0.388810 7.241701e-03 1.437100e-14 1 
    0.389085 8.427722e-03 1.670100e-14 1 
    0.389360 8.494722e-03 1.681000e-14 1 
    0.389635 8.252181e-03 1.630700e-14 1 
    0.389910 1.039884e-02 2.052000e-14 1 
    0.390185 1.067131e-02 2.102800e-14 1 
    0.390460 1.012125e-02 1.991600e-14 1 
    0.390735 9.797081e-03 1.925100e-14 1 
    0.391010 9.304814e-03 1.825800e-14 1 
    0.391285 9.901743e-03 1.940200e-14 1 
    0.391560 9.465930e-03 1.852200e-14 1 
    0.391835 9.533992e-03 1.862900e-14 1 
    0.392110 7.338500e-03 1.431900e-14 1 
    0.392385 7.221519e-03 1.407100e-14 1 
    0.392660 7.431053e-03 1.445900e-14 1 
    0.392935 7.900028e-03 1.535000e-14 1 
    0.393210 6.473178e-03 1.256000e-14 1 
    0.393485 9.250604e-03 1.792400e-14 1 
    0.393760 9.270773e-03 1.793800e-14 1 
    0.394035 1.042957e-02 2.015200e-14 1 
    0.394310 1.025030e-02 1.977800e-14 1 
    0.394585 1.095279e-02 2.110400e-14 1 
    0.394860 1.088646e-02 2.094700e-14 1 
    0.395135 1.079963e-02 2.075100e-14 1 
    0.395410 1.027005e-02 1.970600e-14 1 
    0.395685 1.034540e-02 1.982300e-14 1 
    0.395960 1.308574e-02 2.503900e-14 1 
    0.396235 1.266170e-02 2.419400e-14 1 
    0.396510 1.363309e-02 2.601400e-14 1 
    0.396785 1.296715e-02 2.470900e-14 1 
    0.397060 1.182740e-02 2.250600e-14 1 
    0.397335 1.056763e-02 2.008100e-14 1 
    0.397610 8.875908e-03 1.684300e-14 1 
    0.397885 8.040691e-03 1.523700e-14 1 
    0.398160 8.870889e-03 1.678700e-14 1 
    0.398435 8.812238e-03 1.665300e-14 1 
    0.398710 9.374442e-03 1.769100e-14 1 
    0.398985 9.049897e-03 1.705500e-14 1 
    0.399260 1.064424e-02 2.003200e-14 1 
    0.399535 1.303098e-02 2.449000e-14 1 
    0.399810 1.135454e-02 2.131000e-14 1 
    0.400085 1.181035e-02 2.213500e-14 1 
    0.400360 1.028622e-02 1.925200e-14 1 
    0.400635 1.165291e-02 2.178000e-14 1 
    0.400910 1.280312e-02 2.389700e-14 1 
    0.401185 1.238076e-02 2.307700e-14 1 
    0.401460 1.216244e-02 2.263900e-14 1 
    0.401735 1.276980e-02 2.373700e-14 1 
    0.402010 1.228952e-02 2.281300e-14 1 
    0.402285 1.074950e-02 1.992700e-14 1 
    0.402560 9.877766e-03 1.828600e-14 1 
    0.402835 8.012651e-03 1.481300e-14 1 
    0.403110 8.403297e-03 1.551400e-14 1 
    0.403385 9.794084e-03 1.805700e-14 1 
    0.403660 9.549453e-03 1.758200e-14 1 
    0.403935 1.095589e-02 2.014400e-14 1 
    0.404210 1.168644e-02 2.145800e-14 1 
    0.404485 1.180215e-02 2.164100e-14 1 
    0.404760 1.273237e-02 2.331500e-14 1 
    0.405035 1.198246e-02 2.191200e-14 1 
    0.405310 1.108207e-02 2.023800e-14 1 
    0.405585 9.943428e-03 1.813400e-14 1 
    0.405860 1.108856e-02 2.019500e-14 1 
    0.406135 9.061014e-03 1.648000e-14 1 
    0.406410 7.357732e-03 1.336400e-14 1 
    0.406685 8.293892e-03 1.504400e-14 1 
    0.406960 8.815764e-03 1.596900e-14 1 
    0.407235 1.107537e-02 2.003500e-14 1 
    0.407510 1.172193e-02 2.117600e-14 1 
    0.407785 1.153766e-02 2.081500e-14 1 
    0.408060 1.326664e-02 2.390200e-14 1 
    0.408335 1.402207e-02 2.522900e-14 1 
    0.408610 1.466707e-02 2.635400e-14 1 
    0.408885 1.414067e-02 2.537400e-14 1 
    0.409160 1.394597e-02 2.499100e-14 1 
    0.409435 1.366074e-02 2.444700e-14 1 
    0.409710 1.505669e-02 2.690900e-14 1 
    0.409985 1.527469e-02 2.726200e-14 1 
    0.410260 1.626523e-02 2.899100e-14 1 
    0.410535 1.546851e-02 2.753400e-14 1 
    0.410810 1.639213e-02 2.913900e-14 1 
    0.411085 1.478670e-02 2.625000e-14 1 
    0.411360 1.561704e-02 2.768700e-14 1 
    0.411635 1.506465e-02 2.667200e-14 1 
    0.411910 1.515887e-02 2.680300e-14 1 
    0.412185 1.597990e-02 2.821700e-14 1 
    0.412460 1.635849e-02 2.884700e-14 1 
    0.412735 1.674940e-02 2.949700e-14 1 
    0.413010 1.494541e-02 2.628500e-14 1 
    0.413285 1.424509e-02 2.502000e-14 1 
    0.413560 1.452688e-02 2.548100e-14 1 
    0.413835 1.552866e-02 2.720200e-14 1 
    0.414110 1.547900e-02 2.707900e-14 1 
    0.414385 1.486422e-02 2.596900e-14 1 
    0.414660 1.536253e-02 2.680400e-14 1 
    0.414935 1.691581e-02 2.947500e-14 1 
    0.415210 1.544756e-02 2.688100e-14 1 
    0.415485 1.523785e-02 2.648100e-14 1 
    0.415760 1.435111e-02 2.490700e-14 1 
    0.416035 1.547958e-02 2.683000e-14 1 
    0.416310 1.438506e-02 2.490000e-14 1 
    0.416585 1.537534e-02 2.657900e-14 1 
    0.416860 1.538058e-02 2.655300e-14 1 
    0.417135 1.525530e-02 2.630200e-14 1 
    0.417410 1.449835e-02 2.496400e-14 1 
    0.417685 1.315376e-02 2.261900e-14 1 
    0.417960 1.443294e-02 2.478600e-14 1 
    0.418235 1.513529e-02 2.595800e-14 1 
    0.418510 1.512134e-02 2.590000e-14 1 
    0.418785 1.552238e-02 2.655200e-14 1 
    0.419060 1.340090e-02 2.289300e-14 1 
    0.419335 1.349234e-02 2.301900e-14 1 
    0.419610 1.336391e-02 2.277000e-14 1 
    0.419885 1.264624e-02 2.151900e-14 1 
    0.420160 1.240154e-02 2.107500e-14 1 
    0.420435 1.203479e-02 2.042500e-14 1 
    0.420710 1.282756e-02 2.174200e-14 1 
    0.420985 1.379132e-02 2.334500e-14 1 
    0.421260 1.460022e-02 2.468200e-14 1 
    0.421535 1.476796e-02 2.493300e-14 1 
    0.421810 1.621418e-02 2.733900e-14 1 
    0.422085 1.454761e-02 2.449700e-14 1 
    0.422360 1.512492e-02 2.543600e-14 1 
    0.422635 1.505174e-02 2.528000e-14 1 
    0.422910 1.382115e-02 2.318300e-14 1 
    0.423185 1.535241e-02 2.571800e-14 1 
    0.423460 1.566884e-02 2.621400e-14 1 
    0.423735 1.586456e-02 2.650700e-14 1 
    0.424010 1.604457e-02 2.677300e-14 1 
    0.424285 1.516530e-02 2.527300e-14 1 
    0.424560 1.665221e-02 2.771500e-14 1 
    0.424835 1.664250e-02 2.766300e-14 1 
    0.425110 1.596708e-02 2.650600e-14 1 
    0.425385 1.573683e-02 2.609000e-14 1 
    0.425660 1.599574e-02 2.648500e-14 1 
    0.425935 1.502768e-02 2.485000e-14 1 
    0.426210 1.620241e-02 2.675800e-14 1 
    0.426485 1.631609e-02 2.691100e-14 1 
    0.426760 1.550362e-02 2.553800e-14 1 
    0.427035 1.546707e-02 2.544500e-14 1 
    0.427310 1.522346e-02 2.501200e-14 1 
    0.427585 1.395777e-02 2.290300e-14 1 
    0.427860 1.449868e-02 2.376000e-14 1 
    0.428135 1.476295e-02 2.416200e-14 1 
    0.428410 1.451579e-02 2.372700e-14 1 
    0.428685 1.521500e-02 2.483800e-14 1 
    0.428960 1.705926e-02 2.781300e-14 1 
    0.429235 1.604385e-02 2.612400e-14 1 
    0.429510 1.521090e-02 2.473600e-14 1 
    0.429785 1.491575e-02 2.422500e-14 1 
    0.430060 1.474558e-02 2.391800e-14 1 
    0.430335 1.577989e-02 2.556300e-14 1 
    0.430610 1.699049e-02 2.748900e-14 1 
    0.430885 1.619776e-02 2.617300e-14 1 
    0.431160 1.530754e-02 2.470300e-14 1 
    0.431435 1.581909e-02 2.549600e-14 1 
    0.431710 1.471543e-02 2.368700e-14 1 
    0.431985 1.623205e-02 2.609500e-14 1 
    0.432260 1.625584e-02 2.610000e-14 1 
    0.432535 1.522822e-02 2.441900e-14 1 
    0.432810 1.605746e-02 2.571600e-14 1 
    0.433085 1.520570e-02 2.432100e-14 1 
    0.433360 1.724263e-02 2.754400e-14 1 
    0.433635 1.448028e-02 2.310200e-14 1 
    0.433910 1.723119e-02 2.745600e-14 1 
    0.434185 1.645436e-02 2.618500e-14 1 
    0.434460 1.731391e-02 2.751800e-14 1 
    0.434735 1.687658e-02 2.678900e-14 1 
    0.435010 1.658696e-02 2.629600e-14 1 
    0.435285 1.755405e-02 2.779400e-14 1 
    0.435560 1.716456e-02 2.714300e-14 1 
    0.435835 1.604969e-02 2.534800e-14 1 
    0.436110 1.566294e-02 2.470600e-14 1 
    0.436385 1.716490e-02 2.704100e-14 1 
    0.436660 1.785834e-02 2.809800e-14 1 
    0.436935 1.723619e-02 2.708500e-14 1 
    0.437210 1.678893e-02 2.634900e-14 1 
    0.437485 1.627671e-02 2.551300e-14 1 
    0.437760 1.714548e-02 2.684100e-14 1 
    0.438035 1.584565e-02 2.477500e-14 1 
    0.438310 1.739671e-02 2.716600e-14 1 
    0.438585 1.661642e-02 2.591500e-14 1 
    0.438860 1.575517e-02 2.454100e-14 1 
    0.439135 1.607960e-02 2.501500e-14 1 
    0.439410 1.590023e-02 2.470500e-14 1 
    0.439685 1.564949e-02 2.428500e-14 1 
    0.439960 1.522839e-02 2.360200e-14 1 
    0.440235 1.556334e-02 2.409100e-14 1 
    0.440510 1.421474e-02 2.197600e-14 1 
    0.440785 1.480760e-02 2.286400e-14 1 
    0.441060 1.424248e-02 2.196400e-14 1 
    0.441335 1.574964e-02 2.425800e-14 1 
    0.441610 1.415061e-02 2.176800e-14 1 
    0.441885 1.555395e-02 2.389700e-14 1 
    0.442160 1.672223e-02 2.566000e-14 1 
    0.442435 1.716064e-02 2.630000e-14 1 
    0.442710 1.736099e-02 2.657400e-14 1 
    0.442985 1.673760e-02 2.558800e-14 1 
    0.443260 1.613358e-02 2.463400e-14 1 
    0.443535 1.718575e-02 2.620800e-14 1 
    0.443810 1.670611e-02 2.544500e-14 1 
    0.444085 1.650463e-02 2.510700e-14 1 
    0.444360 1.597220e-02 2.426700e-14 1 
    0.444635 1.568422e-02 2.380000e-14 1 
    0.444910 1.634563e-02 2.477300e-14 1 
    0.445185 1.733962e-02 2.624700e-14 1 
    0.445460 1.781546e-02 2.693400e-14 1 
    0.445735 1.727321e-02 2.608200e-14 1 
    0.446010 1.703394e-02 2.568900e-14 1 
    0.446285 1.655968e-02 2.494300e-14 1 
    0.446560 1.855631e-02 2.791600e-14 1 
    0.446835 1.906168e-02 2.864100e-14 1 
    0.447110 1.892590e-02 2.840200e-14 1 
    0.447385 2.001600e-02 3.000100e-14 1 
    0.447660 1.868458e-02 2.797100e-14 1 
    0.447935 1.786349e-02 2.670900e-14 1 
    0.448210 1.899771e-02 2.837000e-14 1 
    0.448485 1.850477e-02 2.760000e-14 1 
    0.448760 1.897522e-02 2.826700e-14 1 
    0.449035 1.813885e-02 2.698800e-14 1 
    0.449310 1.709515e-02 2.540400e-14 1 
    0.449585 1.840902e-02 2.732300e-14 1 
    0.449860 1.845786e-02 2.736200e-14 1 
    0.450135 1.734846e-02 2.568600e-14 1 
    0.450410 1.732165e-02 2.561500e-14 1 
    0.450685 1.819116e-02 2.686800e-14 1 
    0.450960 1.795034e-02 2.648000e-14 1 
    0.451235 1.812156e-02 2.670000e-14 1 
    0.451510 1.909637e-02 2.810200e-14 1 
    0.451785 1.968910e-02 2.893900e-14 1 
    0.452060 1.846990e-02 2.711400e-14 1 
    0.452335 1.841667e-02 2.700300e-14 1 
    0.452610 1.957602e-02 2.866800e-14 1 
    0.452885 1.977005e-02 2.891700e-14 1 
    0.453160 1.970303e-02 2.878400e-14 1 
    0.453435 1.944116e-02 2.836700e-14 1 
    0.453710 1.957180e-02 2.852300e-14 1 
    0.453985 1.988407e-02 2.894300e-14 1 
    0.454260 2.060633e-02 2.995800e-14 1 
    0.454535 2.140880e-02 3.108700e-14 1 
    0.454810 2.082656e-02 3.020500e-14 1 
    0.455085 1.982867e-02 2.872300e-14 1 
    0.455360 2.070624e-02 2.995800e-14 1 
    0.455635 2.067590e-02 2.987800e-14 1 
    0.455910 1.961102e-02 2.830500e-14 1 
    0.456185 1.959029e-02 2.824100e-14 1 
    0.456460 1.960975e-02 2.823500e-14 1 
    0.456735 2.029815e-02 2.919100e-14 1 
    0.457010 2.013601e-02 2.892300e-14 1 
    0.457285 1.941513e-02 2.785400e-14 1 
    0.457560 1.966180e-02 2.817400e-14 1 
    0.457835 1.987200e-02 2.844100e-14 1 
    0.458110 2.042404e-02 2.919600e-14 1 
    0.458385 2.120079e-02 3.027000e-14 1 
    0.458660 2.213152e-02 3.156100e-14 1 
    0.458935 2.154165e-02 3.068300e-14 1 
    0.459210 2.070992e-02 2.946300e-14 1 
    0.459485 2.120836e-02 3.013600e-14 1 
    0.459760 2.089343e-02 2.965300e-14 1 
    0.460035 2.091702e-02 2.965100e-14 1 
    0.460310 2.158264e-02 3.055800e-14 1 
    0.460585 2.111274e-02 2.985700e-14 1 
    0.460860 2.141336e-02 3.024600e-14 1 
    0.461135 2.155020e-02 3.040300e-14 1 
    0.461410 2.077896e-02 2.928000e-14 1 
    0.461685 2.088189e-02 2.939000e-14 1 
    0.461960 2.154913e-02 3.029300e-14 1 
    0.462235 2.260179e-02 3.173500e-14 1 
    0.462510 2.219516e-02 3.112700e-14 1 
    0.462785 2.170184e-02 3.039900e-14 1 
    0.463060 2.198781e-02 3.076300e-14 1 
    0.463335 2.176920e-02 3.042100e-14 1 
    0.463610 2.127061e-02 2.968900e-14 1 
    0.463885 2.060007e-02 2.871900e-14 1 
    0.464160 2.084498e-02 2.902600e-14 1 
    0.464435 2.009172e-02 2.794400e-14 1 
    0.464710 2.162001e-02 3.003400e-14 1 
    0.464985 2.174002e-02 3.016500e-14 1 
    0.465260 2.089988e-02 2.896500e-14 1 
    0.465535 2.108280e-02 2.918400e-14 1 
    0.465810 2.248191e-02 3.108400e-14 1 
    0.466085 2.169673e-02 2.996300e-14 1 
    0.466360 2.113511e-02 2.915300e-14 1 
    0.466635 2.178281e-02 3.001100e-14 1 
    0.466910 2.197853e-02 3.024500e-14 1 
    0.467185 2.232673e-02 3.068800e-14 1 
    0.467460 2.305884e-02 3.165700e-14 1 
    0.467735 2.363802e-02 3.241400e-14 1 
    0.468010 2.346577e-02 3.214000e-14 1 
    0.468285 2.250217e-02 3.078400e-14 1 
    0.468560 2.203755e-02 3.011300e-14 1 
    0.468835 2.241584e-02 3.059400e-14 1 
    0.469110 2.314268e-02 3.154900e-14 1 
    0.469385 2.236785e-02 3.045700e-14 1 
    0.469660 2.262274e-02 3.076800e-14 1 
    0.469935 2.149646e-02 2.920200e-14 1 
    0.470210 2.257110e-02 3.062600e-14 1 
    0.470485 2.241231e-02 3.037500e-14 1 
    0.470760 2.213047e-02 2.995800e-14 1 
    0.471035 2.160313e-02 2.921000e-14 1 
    0.471310 2.177793e-02 2.941200e-14 1 
    0.471585 2.192641e-02 2.957800e-14 1 
    0.471860 2.356176e-02 3.174700e-14 1 
    0.472135 2.338936e-02 3.147800e-14 1 
    0.472410 2.280363e-02 3.065400e-14 1 
    0.472685 2.393394e-02 3.213600e-14 1 
    0.472960 2.305212e-02 3.091600e-14 1 
    0.473235 2.332006e-02 3.123900e-14 1 
    0.473510 2.303103e-02 3.081600e-14 1 
    0.473785 2.313785e-02 3.092300e-14 1 
    0.474060 2.436404e-02 3.252400e-14 1 
    0.474335 2.409383e-02 3.212600e-14 1 
    0.474610 2.412552e-02 3.213100e-14 1 
    0.474885 2.384303e-02 3.171800e-14 1 
    0.475160 2.210809e-02 2.937600e-14 1 
    0.475435 2.221732e-02 2.948700e-14 1 
    0.475710 2.289704e-02 3.035400e-14 1 
    0.475985 2.313271e-02 3.063100e-14 1 
    0.476260 2.347322e-02 3.104600e-14 1 
    0.476535 2.375088e-02 3.137700e-14 1 
    0.476810 2.315158e-02 3.055000e-14 1 
    0.477085 2.458720e-02 3.240700e-14 1 
    0.477360 2.333947e-02 3.072700e-14 1 
    0.477635 2.195117e-02 2.886600e-14 1 
    0.477910 2.228936e-02 2.927700e-14 1 
    0.478185 2.240648e-02 2.939700e-14 1 
    0.478460 2.249941e-02 2.948500e-14 1 
    0.478735 2.247639e-02 2.942100e-14 1 
    0.479010 2.286781e-02 2.989900e-14 1 
    0.479285 2.414678e-02 3.153500e-14 1 
    0.479560 2.483837e-02 3.240100e-14 1 
    0.479835 2.519227e-02 3.282500e-14 1 
    0.480110 2.468408e-02 3.212600e-14 1 
    0.480385 2.331082e-02 3.030400e-14 1 
    0.480660 2.345303e-02 3.045400e-14 1 
    0.480935 2.311905e-02 2.998600e-14 1 
    0.481210 2.357235e-02 3.053900e-14 1 
    0.481485 2.416187e-02 3.126700e-14 1 
    0.481760 2.215634e-02 2.863900e-14 1 
    0.482035 2.397312e-02 3.095200e-14 1 
    0.482310 2.337938e-02 3.015100e-14 1 
    0.482585 2.419554e-02 3.116800e-14 1 
    0.482860 2.323844e-02 2.990100e-14 1 
    0.483135 2.431764e-02 3.125400e-14 1 
    0.483410 2.480569e-02 3.184500e-14 1 
    0.483685 2.475983e-02 3.175000e-14 1 
    0.483960 2.407832e-02 3.084100e-14 1 
    0.484235 2.489668e-02 3.185300e-14 1 
    0.484510 2.451807e-02 3.133300e-14 1 
    0.484785 2.329954e-02 2.974200e-14 1 
    0.485060 2.289933e-02 2.919800e-14 1 
    0.485335 2.416979e-02 3.078300e-14 1 
    0.485610 2.408479e-02 3.064000e-14 1 
    0.485885 2.531610e-02 3.217000e-14 1 
    0.486160 2.583637e-02 3.279400e-14 1 
    0.486435 2.612984e-02 3.312900e-14 1 
    0.486710 2.445854e-02 3.097500e-14 1 
    0.486985 2.345694e-02 2.967300e-14 1 
    0.487260 2.519209e-02 3.183200e-14 1 
    0.487535 2.503751e-02 3.160100e-14 1 
    0.487810 2.515698e-02 3.171600e-14 1 
    0.488085 2.480102e-02 3.123200e-14 1 
    0.488360 2.481228e-02 3.121100e-14 1 
    0.488635 2.385652e-02 2.997500e-14 1 
    0.488910 2.470008e-02 3.100000e-14 1 
    0.489185 2.483396e-02 3.113300e-14 1 
    0.489460 2.467982e-02 3.090500e-14 1 
    0.489735 2.568770e-02 3.213100e-14 1 
    0.490010 2.548285e-02 3.183900e-14 1 
    0.490285 2.591530e-02 3.234300e-14 1 
    0.490560 2.431438e-02 3.031100e-14 1 
    0.490835 2.415855e-02 3.008300e-14 1 
    0.491110 2.434240e-02 3.027800e-14 1 
    0.491385 2.515683e-02 3.125600e-14 1 
    0.491660 2.610357e-02 3.239600e-14 1 
    0.491935 2.483969e-02 3.079300e-14 1 
    0.492210 2.555875e-02 3.164900e-14 1 
    0.492485 2.492922e-02 3.083500e-14 1 
    0.492760 2.511571e-02 3.103100e-14 1 
    0.493035 2.638509e-02 3.256300e-14 1 
    0.493310 2.457478e-02 3.029500e-14 1 
    0.493585 2.589097e-02 3.188200e-14 1 
    0.493860 2.578161e-02 3.171200e-14 1 
    0.494135 2.437136e-02 2.994400e-14 1 
    0.494410 2.402532e-02 2.948600e-14 1 
    0.494685 2.490202e-02 3.052800e-14 1 
    0.494960 2.435155e-02 2.982000e-14 1 
    0.495235 2.478656e-02 3.031900e-14 1 
    0.495510 2.381152e-02 2.909400e-14 1 
    0.495785 2.435086e-02 2.972000e-14 1 
    0.496060 2.249130e-02 2.742000e-14 1 
    0.496335 2.481632e-02 3.022100e-14 1 
    0.496610 2.496303e-02 3.036600e-14 1 
    0.496885 2.431913e-02 2.955000e-14 1 
    0.497160 2.467232e-02 2.994600e-14 1 
    0.497435 2.618839e-02 3.175100e-14 1 
    0.497710 2.612322e-02 3.163700e-14 1 
    0.497985 2.876012e-02 3.479200e-14 1 
    0.498260 2.944731e-02 3.558400e-14 1 
    0.498535 2.717339e-02 3.280000e-14 1 
    0.498810 2.688490e-02 3.241600e-14 1 
    0.499085 2.544412e-02 3.064500e-14 1 
    0.499360 2.445478e-02 2.942100e-14 1 
    0.499635 2.357804e-02 2.833500e-14 1 
    0.499910 2.379226e-02 2.856100e-14 1 
    0.500185 2.474413e-02 2.967100e-14 1 
    0.500460 2.444492e-02 2.928000e-14 1 
    0.500735 2.359087e-02 2.822600e-14 1 
    0.501010 2.429034e-02 2.903100e-14 1 
    0.501285 2.441585e-02 2.914900e-14 1 
    0.501560 2.498267e-02 2.979300e-14 1 
    0.501835 2.558426e-02 3.047700e-14 1 
    0.502110 2.581232e-02 3.071500e-14 1 
    0.502385 2.582378e-02 3.069500e-14 1 
    0.502660 2.592785e-02 3.078500e-14 1 
    0.502935 2.397905e-02 2.844000e-14 1 
    0.503210 2.568498e-02 3.043000e-14 1 
    0.503485 2.607556e-02 3.085900e-14 1 
    0.503760 2.452642e-02 2.899400e-14 1 
    0.504035 2.390453e-02 2.822800e-14 1 
    0.504310 2.486655e-02 2.933200e-14 1 
    0.504585 2.521873e-02 2.971500e-14 1 
    0.504860 2.659966e-02 3.130800e-14 1 
    0.505135 2.613278e-02 3.072500e-14 1 
    0.505410 2.589814e-02 3.041600e-14 1 
    0.505685 2.664915e-02 3.126400e-14 1 
    0.505960 2.737360e-02 3.207900e-14 1 
    0.506235 2.574186e-02 3.013400e-14 1 
    0.506510 2.734763e-02 3.197900e-14 1 
    0.506785 2.772149e-02 3.238100e-14 1 
    0.507060 2.818267e-02 3.288400e-14 1 
    0.507335 2.932345e-02 3.417800e-14 1 
    0.507610 2.805317e-02 3.266200e-14 1 
    0.507885 2.904571e-02 3.378100e-14 1 
    0.508160 2.904619e-02 3.374500e-14 1 
    0.508435 3.047098e-02 3.536200e-14 1 
    0.508710 2.806792e-02 3.253800e-14 1 
    0.508985 2.897996e-02 3.355900e-14 1 
    0.509260 2.741631e-02 3.171400e-14 1 
    0.509535 2.580076e-02 2.981300e-14 1 
    0.509810 2.744957e-02 3.168400e-14 1 
    0.510085 2.611841e-02 3.011500e-14 1 
    0.510360 2.433459e-02 2.802800e-14 1 
    0.510635 2.570716e-02 2.957700e-14 1 
    0.510910 2.650402e-02 3.046100e-14 1 
    0.511185 2.758912e-02 3.167400e-14 1 
    0.511460 2.836784e-02 3.253300e-14 1 
    0.511735 2.845509e-02 3.259800e-14 1 
    0.512010 2.899863e-02 3.318500e-14 1 
    0.512285 3.142670e-02 3.592500e-14 1 
    0.512560 3.450360e-02 3.940000e-14 1 
    0.512835 3.599502e-02 4.105900e-14 1 
    0.513110 3.750363e-02 4.273400e-14 1 
    0.513385 3.569274e-02 4.062700e-14 1 
    0.513660 3.365891e-02 3.827100e-14 1 
    0.513935 2.911936e-02 3.307400e-14 1 
    0.514210 2.854062e-02 3.238200e-14 1 
    0.514485 2.704387e-02 3.065100e-14 1 
    0.514760 2.510842e-02 2.842700e-14 1 
    0.515035 2.530679e-02 2.862100e-14 1 
    0.515310 2.536834e-02 2.866000e-14 1 
    0.515585 2.617076e-02 2.953500e-14 1 
    0.515860 2.578000e-02 2.906300e-14 1 
    0.516135 2.659602e-02 2.995100e-14 1 
    0.516410 2.479762e-02 2.789600e-14 1 
    0.516685 2.674084e-02 3.005000e-14 1 
    0.516960 2.628915e-02 2.951100e-14 1 
    0.517235 2.700558e-02 3.028300e-14 1 
    0.517510 2.738425e-02 3.067500e-14 1 
    0.517785 2.786377e-02 3.117900e-14 1 
    0.518060 2.593684e-02 2.899200e-14 1 
    0.518335 2.660293e-02 2.970500e-14 1 
    0.518610 2.764243e-02 3.083300e-14 1 
    0.518885 2.718353e-02 3.028900e-14 1 
    0.519160 2.757891e-02 3.069700e-14 1 
    0.519435 2.782939e-02 3.094300e-14 1 
    0.519710 2.559363e-02 2.842700e-14 1 
    0.519985 2.583884e-02 2.866900e-14 1 
    0.520260 2.528604e-02 2.802600e-14 1 
    0.520535 2.671633e-02 2.958000e-14 1 
    0.520810 2.595344e-02 2.870500e-14 1 
    0.521085 2.758560e-02 3.047800e-14 1 
    0.521360 2.616050e-02 2.887300e-14 1 
    0.521635 2.715044e-02 2.993400e-14 1 
    0.521910 2.638279e-02 2.905700e-14 1 
    0.522185 2.592615e-02 2.852400e-14 1 
    0.522460 2.548487e-02 2.800900e-14 1 
    0.522735 2.642255e-02 2.900900e-14 1 
    0.523010 2.664639e-02 2.922400e-14 1 
    0.523285 2.658588e-02 2.912700e-14 1 
    0.523560 2.811873e-02 3.077400e-14 1 
    0.523835 2.657777e-02 2.905700e-14 1 
    0.524110 2.760373e-02 3.014700e-14 1 
    0.524385 2.735314e-02 2.984200e-14 1 
    0.524660 2.569536e-02 2.800400e-14 1 
    0.524935 2.655908e-02 2.891500e-14 1 
    0.525210 2.597270e-02 2.824700e-14 1 
    0.525485 2.544119e-02 2.764000e-14 1 
    0.525760 2.644821e-02 2.870400e-14 1 
    0.526035 2.721286e-02 2.950300e-14 1 
    0.526310 2.674918e-02 2.897000e-14 1 
    0.526585 2.722266e-02 2.945200e-14 1 
    0.526860 2.589372e-02 2.798500e-14 1 
    0.527135 2.654227e-02 2.865600e-14 1 
    0.527410 2.734789e-02 2.949500e-14 1 
    0.527685 2.768272e-02 2.982500e-14 1 
    0.527960 2.733435e-02 2.941900e-14 1 
    0.528235 2.868265e-02 3.083800e-14 1 
    0.528510 2.861848e-02 3.073700e-14 1 
    0.528785 2.852245e-02 3.060200e-14 1 
    0.529060 2.724683e-02 2.920300e-14 1 
    0.529335 2.584991e-02 2.767700e-14 1 
    0.529610 2.516340e-02 2.691400e-14 1 
    0.529885 2.596075e-02 2.773800e-14 1 
    0.530160 2.466573e-02 2.632700e-14 1 
    0.530435 2.533471e-02 2.701300e-14 1 
    0.530710 2.610079e-02 2.780100e-14 1 
    0.530985 2.569083e-02 2.733600e-14 1 
    0.531260 2.565536e-02 2.727000e-14 1 
    0.531535 2.867674e-02 3.045000e-14 1 
    0.531810 2.856218e-02 3.029700e-14 1 
    0.532085 2.929291e-02 3.104000e-14 1 
    0.532360 2.936476e-02 3.108400e-14 1 
    0.532635 2.993603e-02 3.165600e-14 1 
    0.532910 3.044122e-02 3.215700e-14 1 
    0.533185 3.031439e-02 3.199000e-14 1 
    0.533460 3.032575e-02 3.196900e-14 1 
    0.533735 2.790521e-02 2.938700e-14 1 
    0.534010 2.990828e-02 3.146400e-14 1 
    0.534285 2.976592e-02 3.128200e-14 1 
    0.534560 2.915743e-02 3.061100e-14 1 
    0.534835 2.948111e-02 3.091900e-14 1 
    0.535110 2.779911e-02 2.912500e-14 1 
    0.535385 2.741206e-02 2.869000e-14 1 
    0.535660 2.702609e-02 2.825700e-14 1 
    0.535935 2.769341e-02 2.892500e-14 1 
    0.536210 2.949776e-02 3.077800e-14 1 
    0.536485 3.085773e-02 3.216400e-14 1 
    0.536760 3.050427e-02 3.176300e-14 1 
    0.537035 3.091815e-02 3.216100e-14 1 
    0.537310 2.948706e-02 3.064100e-14 1 
    0.537585 2.995557e-02 3.109600e-14 1 
    0.537860 3.021091e-02 3.132900e-14 1 
    0.538135 2.975626e-02 3.082600e-14 1 
    0.538410 2.927262e-02 3.029400e-14 1 
    0.538685 2.923579e-02 3.022500e-14 1 
    0.538960 2.880766e-02 2.975200e-14 1 
    0.539235 2.810916e-02 2.900100e-14 1 
    0.539510 2.792827e-02 2.878500e-14 1 
    0.539785 2.735167e-02 2.816200e-14 1 
    0.540060 2.749816e-02 2.828400e-14 1 
    0.540335 2.839622e-02 2.917800e-14 1 
    0.540610 2.832089e-02 2.907100e-14 1 
    0.540885 3.085009e-02 3.163500e-14 1 
    0.541160 3.047148e-02 3.121500e-14 1 
    0.541435 3.063632e-02 3.135200e-14 1 
    0.541710 3.079755e-02 3.148500e-14 1 
    0.541985 3.085722e-02 3.151400e-14 1 
    0.542260 3.097382e-02 3.160100e-14 1 
    0.542535 3.017126e-02 3.075100e-14 1 
    0.542810 2.964302e-02 3.018200e-14 1 
    0.543085 3.085578e-02 3.138500e-14 1 
    0.543360 3.210638e-02 3.262400e-14 1 
    0.543635 3.249353e-02 3.298400e-14 1 
    0.543910 3.232031e-02 3.277500e-14 1 
    0.544185 3.072918e-02 3.113000e-14 1 
    0.544460 3.143118e-02 3.180900e-14 1 
    0.544735 3.016522e-02 3.049700e-14 1 
    0.545010 3.166502e-02 3.198100e-14 1 
    0.545285 3.077425e-02 3.105000e-14 1 
    0.545560 3.082911e-02 3.107400e-14 1 
    0.545835 3.106577e-02 3.128100e-14 1 
    0.546110 2.983057e-02 3.000700e-14 1 
    0.546385 3.080400e-02 3.095500e-14 1 
    0.546660 3.117768e-02 3.129900e-14 1 
    0.546935 3.142444e-02 3.151500e-14 1 
    0.547210 3.002872e-02 3.008500e-14 1 
    0.547485 3.185335e-02 3.188100e-14 1 
    0.547760 3.140629e-02 3.140200e-14 1 
    0.548035 3.079010e-02 3.075500e-14 1 
    0.548310 3.266495e-02 3.259500e-14 1 
    0.548585 3.194837e-02 3.184800e-14 1 
    0.548860 3.096923e-02 3.084100e-14 1 
    0.549135 3.181345e-02 3.165000e-14 1 
    0.549410 3.174772e-02 3.155300e-14 1 
    0.549685 3.132829e-02 3.110500e-14 1 
    0.549960 3.170243e-02 3.144500e-14 1 
    0.550235 3.121844e-02 3.093400e-14 1 
    0.550510 3.197498e-02 3.165200e-14 1 
    0.550785 3.073888e-02 3.039800e-14 1 
    0.551060 3.245493e-02 3.206300e-14 1 
    0.551335 3.215702e-02 3.173700e-14 1 
    0.551610 3.244267e-02 3.198700e-14 1 
    0.551885 3.211765e-02 3.163500e-14 1 
    0.552160 3.259886e-02 3.207700e-14 1 
    0.552435 3.158557e-02 3.104900e-14 1 
    0.552710 3.180236e-02 3.123100e-14 1 
    0.552985 3.172087e-02 3.112000e-14 1 
    0.553260 3.060252e-02 2.999300e-14 1 
    0.553535 3.057882e-02 2.994000e-14 1 
    0.553810 3.235743e-02 3.165000e-14 1 
    0.554085 3.282553e-02 3.207600e-14 1 
    0.554360 3.237769e-02 3.160700e-14 1 
    0.554635 3.181816e-02 3.103000e-14 1 
    0.554910 3.214430e-02 3.131700e-14 1 
    0.555185 3.073365e-02 2.991300e-14 1 
    0.555460 3.087621e-02 3.002200e-14 1 
    0.555735 3.259409e-02 3.166100e-14 1 
    0.556010 3.170819e-02 3.077000e-14 1 
    0.556285 3.147240e-02 3.051100e-14 1 
    0.556560 3.177302e-02 3.077200e-14 1 
    0.556835 3.114399e-02 3.013300e-14 1 
    0.557110 3.161858e-02 3.056200e-14 1 
    0.557385 3.339582e-02 3.224800e-14 1 
    0.557660 3.031064e-02 2.924000e-14 1 
    0.557935 3.212217e-02 3.095700e-14 1 
    0.558210 3.123566e-02 3.007300e-14 1 
    0.558485 3.050436e-02 2.934000e-14 1 
    0.558760 3.192792e-02 3.067900e-14 1 
    0.559035 3.149265e-02 3.023100e-14 1 
    0.559310 3.226609e-02 3.094300e-14 1 
    0.559585 2.956520e-02 2.832500e-14 1 
    0.559860 3.187300e-02 3.050600e-14 1 
    0.560135 3.125590e-02 2.988600e-14 1 
    0.560410 3.192937e-02 3.050000e-14 1 
    0.560685 3.246894e-02 3.098500e-14 1 
    0.560960 3.194277e-02 3.045300e-14 1 
    0.561235 3.148273e-02 2.998500e-14 1 
    0.561510 3.124874e-02 2.973300e-14 1 
    0.561785 3.255544e-02 3.094600e-14 1 
    0.562060 3.220191e-02 3.058000e-14 1 
    0.562335 3.331174e-02 3.160300e-14 1 
    0.562610 3.263003e-02 3.092600e-14 1 
    0.562885 3.241374e-02 3.069100e-14 1 
    0.563160 3.202678e-02 3.029500e-14 1 
    0.563435 3.302632e-02 3.121000e-14 1 
    0.563710 3.394302e-02 3.204500e-14 1 
    0.563985 3.473106e-02 3.275700e-14 1 
    0.564260 3.288431e-02 3.098500e-14 1 
    0.564535 3.216637e-02 3.027900e-14 1 
    0.564810 3.221685e-02 3.029700e-14 1 
    0.565085 3.395660e-02 3.190200e-14 1 
    0.565360 3.372117e-02 3.165000e-14 1 
    0.565635 3.351616e-02 3.142700e-14 1 
    0.565910 3.395655e-02 3.180900e-14 1 
    0.566185 3.251389e-02 3.042800e-14 1 
    0.566460 3.308135e-02 3.092900e-14 1 
    0.566735 3.594100e-02 3.357000e-14 1 
    0.567010 3.552579e-02 3.315000e-14 1 
    0.567285 3.319386e-02 3.094400e-14 1 
    0.567560 3.436100e-02 3.200100e-14 1 
    0.567835 3.389561e-02 3.153700e-14 1 
    0.568110 3.467938e-02 3.223500e-14 1 
    0.568385 3.582106e-02 3.326400e-14 1 
    0.568660 3.448571e-02 3.199300e-14 1 
    0.568935 3.346492e-02 3.101600e-14 1 
    0.569210 3.237840e-02 2.998000e-14 1 
    0.569485 3.390045e-02 3.135900e-14 1 
    0.569760 3.191403e-02 2.949300e-14 1 
    0.570035 3.503719e-02 3.234800e-14 1 
    0.570310 3.454626e-02 3.186400e-14 1 
    0.570585 3.323174e-02 3.062200e-14 1 
    0.570860 3.567855e-02 3.284500e-14 1 
    0.571135 3.538457e-02 3.254300e-14 1 
    0.571410 3.493542e-02 3.209900e-14 1 
    0.571685 3.458013e-02 3.174200e-14 1 
    0.571960 3.556102e-02 3.261100e-14 1 
    0.572235 3.443058e-02 3.154400e-14 1 
    0.572510 3.229605e-02 2.956000e-14 1 
    0.572785 3.211820e-02 2.936900e-14 1 
    0.573060 3.401325e-02 3.107200e-14 1 
    0.573335 3.324165e-02 3.033800e-14 1 
    0.573610 3.264510e-02 2.976500e-14 1 
    0.573885 3.392133e-02 3.089900e-14 1 
    0.574160 3.439560e-02 3.130100e-14 1 
    0.574435 3.439445e-02 3.127000e-14 1 
    0.574710 3.343211e-02 3.036600e-14 1 
    0.574985 3.471602e-02 3.150200e-14 1 
    0.575260 3.400465e-02 3.082700e-14 1 
    0.575535 3.472505e-02 3.145000e-14 1 
    0.575810 3.503343e-02 3.169900e-14 1 
    0.576085 3.391752e-02 3.066000e-14 1 
    0.576360 3.454674e-02 3.119900e-14 1 
    0.576635 3.440238e-02 3.103900e-14 1 
    0.576910 3.537932e-02 3.189000e-14 1 
    0.577185 3.399387e-02 3.061200e-14 1 
    0.577460 3.368169e-02 3.030200e-14 1 
    0.577735 3.351351e-02 3.012200e-14 1 
    0.578010 3.399979e-02 3.053000e-14 1 
    0.578285 3.387721e-02 3.039100e-14 1 
    0.578560 3.334262e-02 2.988300e-14 1 
    0.578835 3.425439e-02 3.067100e-14 1 
    0.579110 3.488502e-02 3.120600e-14 1 
    0.579385 3.440008e-02 3.074300e-14 1 
    0.579660 3.710511e-02 3.312900e-14 1 
    0.579935 3.406072e-02 3.038200e-14 1 
    0.580210 3.539247e-02 3.154000e-14 1 
    0.580485 3.598089e-02 3.203400e-14 1 
    0.580760 3.522013e-02 3.132700e-14 1 
    0.581035 3.631356e-02 3.226900e-14 1 
    0.581310 3.557298e-02 3.158100e-14 1 
    0.581585 3.704868e-02 3.286000e-14 1 
    0.581860 3.626215e-02 3.213200e-14 1 
    0.582135 3.441564e-02 3.046700e-14 1 
    0.582410 3.589543e-02 3.174700e-14 1 
    0.582685 3.491982e-02 3.085500e-14 1 
    0.582960 3.571064e-02 3.152400e-14 1 
    0.583235 3.486104e-02 3.074500e-14 1 
    0.583510 3.570995e-02 3.146400e-14 1 
    0.583785 3.622643e-02 3.188900e-14 1 
    0.584060 3.512916e-02 3.089400e-14 1 
    0.584335 3.407986e-02 2.994300e-14 1 
    0.584610 3.583105e-02 3.145200e-14 1 
    0.584885 3.370845e-02 2.956100e-14 1 
    0.585160 3.562799e-02 3.121500e-14 1 
    0.585435 3.672511e-02 3.214600e-14 1 
    0.585710 3.691742e-02 3.228400e-14 1 
    0.585985 3.703222e-02 3.235400e-14 1 
    0.586260 3.624783e-02 3.163900e-14 1 
    0.586535 3.705246e-02 3.231100e-14 1 
    0.586810 3.534712e-02 3.079500e-14 1 
    0.587085 3.909463e-02 3.402800e-14 1 
    0.587360 3.494882e-02 3.039100e-14 1 
    0.587635 3.631102e-02 3.154600e-14 1 
    0.587910 3.880595e-02 3.368200e-14 1 
    0.588185 3.848016e-02 3.336800e-14 1 
    0.588460 3.736763e-02 3.237300e-14 1 
    0.588735 3.592717e-02 3.109600e-14 1 
    0.589010 3.544265e-02 3.064800e-14 1 
    0.589285 3.713217e-02 3.207900e-14 1 
    0.589560 3.635002e-02 3.137400e-14 1 
    0.589835 3.721080e-02 3.208700e-14 1 
    0.590110 3.821590e-02 3.292300e-14 1 
    0.590385 3.665747e-02 3.155100e-14 1 
    0.590660 3.884887e-02 3.340600e-14 1 
    0.590935 3.973711e-02 3.413800e-14 1 
    0.591210 3.655494e-02 3.137500e-14 1 
    0.591485 3.611431e-02 3.096800e-14 1 
    0.591760 3.836688e-02 3.286900e-14 1 
    0.592035 3.731247e-02 3.193600e-14 1 
    0.592310 3.680570e-02 3.147300e-14 1 
    0.592585 3.437944e-02 2.937100e-14 1 
    0.592860 3.783597e-02 3.229400e-14 1 
    0.593135 3.660574e-02 3.121500e-14 1 
    0.593410 3.556686e-02 3.030100e-14 1 
    0.593685 3.697912e-02 3.147500e-14 1 
    0.593960 3.814584e-02 3.243800e-14 1 
    0.594235 3.693939e-02 3.138300e-14 1 
    0.594510 3.994014e-02 3.390100e-14 1 
    0.594785 3.829434e-02 3.247400e-14 1 
    0.595060 3.712347e-02 3.145200e-14 1 
    0.595335 3.890982e-02 3.293500e-14 1 
    0.595610 3.772780e-02 3.190500e-14 1 
    0.595885 3.931789e-02 3.321900e-14 1 
    0.596160 4.020361e-02 3.393600e-14 1 
    0.596435 3.905849e-02 3.293900e-14 1 
    0.596710 3.638962e-02 3.066000e-14 1 
    0.596985 4.041000e-02 3.401600e-14 1 
    0.597260 4.030931e-02 3.390000e-14 1 
    0.597535 4.065349e-02 3.415800e-14 1 
    0.597810 3.853833e-02 3.235100e-14 1 
    0.598085 3.823516e-02 3.206700e-14 1 
    0.598360 3.779176e-02 3.166600e-14 1 
    0.598635 3.583041e-02 2.999500e-14 1 
    0.598910 3.708888e-02 3.102000e-14 1 
    0.599185 3.650901e-02 3.050700e-14 1 
    0.599460 3.575795e-02 2.985200e-14 1 
    0.599735 3.601856e-02 3.004200e-14 1 
    0.600010 3.863289e-02 3.219300e-14 1 
    0.600285 3.766896e-02 3.136100e-14 1 
    0.600560 3.770228e-02 3.136000e-14 1 
    0.600835 3.801358e-02 3.159000e-14 1 
    0.601110 3.835071e-02 3.184100e-14 1 
    0.601385 3.916941e-02 3.249100e-14 1 
    0.601660 3.901338e-02 3.233200e-14 1 
    0.601935 3.855629e-02 3.192400e-14 1 
    0.602210 3.717596e-02 3.075300e-14 1 
    0.602485 3.651540e-02 3.017900e-14 1 
    0.602760 3.229791e-02 2.666900e-14 1 
    0.603035 3.135522e-02 2.586700e-14 1 
    0.603310 3.000190e-02 2.472800e-14 1 
    0.603585 3.083561e-02 2.539200e-14 1 
    0.603860 3.160395e-02 2.600100e-14 1 
    0.604135 3.251964e-02 2.673000e-14 1 
    0.604410 3.428448e-02 2.815500e-14 1 
    0.604685 3.659609e-02 3.002600e-14 1 
    0.604960 3.769681e-02 3.090100e-14 1 
    0.605235 3.645389e-02 2.985500e-14 1 
    0.605510 3.778005e-02 3.091300e-14 1 
    0.605785 3.975078e-02 3.249600e-14 1 
    0.606060 3.937305e-02 3.215800e-14 1 
    0.606335 3.920903e-02 3.199500e-14 1 
    0.606610 3.900542e-02 3.180000e-14 1 
    0.606885 4.022307e-02 3.276300e-14 1 
    0.607160 4.006415e-02 3.260400e-14 1 
    0.607435 3.974254e-02 3.231300e-14 1 
    0.607710 3.863244e-02 3.138200e-14 1 
    0.607985 3.900379e-02 3.165500e-14 1 
    0.608260 4.050544e-02 3.284400e-14 1 
    0.608535 3.997055e-02 3.238100e-14 1 
    0.608810 3.970028e-02 3.213300e-14 1 
    0.609085 3.904489e-02 3.157400e-14 1 
    0.609360 3.953935e-02 3.194500e-14 1 
    0.609635 3.826806e-02 3.089000e-14 1 
    0.609910 3.650216e-02 2.943800e-14 1 
    0.610185 3.873305e-02 3.120900e-14 1 
    0.610460 4.105238e-02 3.304800e-14 1 
    0.610735 4.159665e-02 3.345600e-14 1 
    0.611010 4.059128e-02 3.261800e-14 1 
    0.611285 3.953297e-02 3.173900e-14 1 
    0.611560 3.994380e-02 3.204000e-14 1 
    0.611835 3.944817e-02 3.161400e-14 1 
    0.612110 3.877674e-02 3.104800e-14 1 
    0.612385 3.915911e-02 3.132600e-14 1 
    0.612660 3.922432e-02 3.135000e-14 1 
    0.612935 3.913806e-02 3.125300e-14 1 
    0.613210 3.989892e-02 3.183200e-14 1 
    0.613485 4.097348e-02 3.266000e-14 1 
    0.613760 4.046903e-02 3.222900e-14 1 
    0.614035 3.913916e-02 3.114200e-14 1 
    0.614310 3.807355e-02 3.026700e-14 1 
    0.614585 3.844003e-02 3.053100e-14 1 
    0.614860 3.845932e-02 3.051900e-14 1 
    0.615135 3.814686e-02 3.024400e-14 1 
    0.615410 3.892834e-02 3.083600e-14 1 
    0.615685 4.017868e-02 3.179800e-14 1 
    0.615960 3.908901e-02 3.090800e-14 1 
    0.616235 3.955557e-02 3.124900e-14 1 
    0.616510 3.850637e-02 3.039300e-14 1 
    0.616785 3.961860e-02 3.124300e-14 1 
    0.617060 3.994332e-02 3.147100e-14 1 
    0.617335 4.033208e-02 3.174900e-14 1 
    0.617610 4.005905e-02 3.150600e-14 1 
    0.617885 3.980585e-02 3.127900e-14 1 
    0.618160 4.178629e-02 3.280600e-14 1 
    0.618435 3.921509e-02 3.076000e-14 1 
    0.618710 4.029119e-02 3.157600e-14 1 
    0.618985 4.027593e-02 3.153600e-14 1 
    0.619260 3.895037e-02 3.047100e-14 1 
    0.619535 3.970015e-02 3.103000e-14 1 
    0.619810 3.945241e-02 3.080900e-14 1 
    0.620085 4.145096e-02 3.234100e-14 1 
    0.620360 4.050253e-02 3.157300e-14 1 
    0.620635 3.924807e-02 3.056800e-14 1 
    0.620910 4.003464e-02 3.115300e-14 1 
    0.621185 3.935368e-02 3.059600e-14 1 
    0.621460 4.074929e-02 3.165300e-14 1 
    0.621735 4.341393e-02 3.369300e-14 1 
    0.622010 4.126767e-02 3.199900e-14 1 
    0.622285 4.043675e-02 3.132700e-14 1 
    0.622560 3.837827e-02 2.970600e-14 1 
    0.622835 3.957853e-02 3.060800e-14 1 
    0.623110 4.079770e-02 3.152300e-14 1 
    0.623385 4.200603e-02 3.242800e-14 1 
    0.623660 3.798633e-02 2.929900e-14 1 
    0.623935 4.027515e-02 3.103700e-14 1 
    0.624210 4.082498e-02 3.143300e-14 1 
    0.624485 4.291357e-02 3.301200e-14 1 
    0.624760 4.079027e-02 3.135100e-14 1 
    0.625035 3.795477e-02 2.914600e-14 1 
    0.625310 4.020261e-02 3.084500e-14 1 
    0.625585 4.296704e-02 3.293700e-14 1 
    0.625860 3.902253e-02 2.988700e-14 1 
    0.626135 4.091905e-02 3.131200e-14 1 
    0.626410 4.062801e-02 3.106200e-14 1 
    0.626685 4.327144e-02 3.305400e-14 1 
    0.626960 4.259140e-02 3.250600e-14 1 
    0.627235 4.220912e-02 3.218600e-14 1 
    0.627510 4.312950e-02 3.285900e-14 1 
    0.627785 4.218334e-02 3.211000e-14 1 
    0.628060 4.232680e-02 3.219100e-14 1 
    0.628335 4.104918e-02 3.119200e-14 1 
    0.628610 4.048054e-02 3.073300e-14 1 
    0.628885 3.853189e-02 2.922800e-14 1 
    0.629160 4.217172e-02 3.196100e-14 1 
    0.629435 4.105437e-02 3.108700e-14 1 
    0.629710 4.072015e-02 3.080700e-14 1 
    0.629985 4.132723e-02 3.123900e-14 1 
    0.630260 4.128785e-02 3.118200e-14 1 
    0.630535 3.996021e-02 3.015300e-14 1 
    0.630810 3.804791e-02 2.868500e-14 1 
    0.631085 3.969806e-02 2.990300e-14 1 
    0.631360 3.908690e-02 2.941700e-14 1 
    0.631635 4.116897e-02 3.095700e-14 1 
    0.631910 3.994434e-02 3.001000e-14 1 
    0.632185 3.974997e-02 2.983800e-14 1 
    0.632460 4.128325e-02 3.096200e-14 1 
    0.632735 4.087877e-02 3.063200e-14 1 
    0.633010 3.910715e-02 2.927900e-14 1 
    0.633285 4.043519e-02 3.024700e-14 1 
    0.633560 4.131191e-02 3.087600e-14 1 
    0.633835 3.919442e-02 2.926800e-14 1 
    0.634110 4.050844e-02 3.022300e-14 1 
    0.634385 4.168653e-02 3.107500e-14 1 
    0.634660 4.009807e-02 2.986500e-14 1 
    0.634935 4.207732e-02 3.131200e-14 1 
    0.635210 4.381921e-02 3.258000e-14 1 
    0.635485 4.159295e-02 3.089800e-14 1 
    0.635760 4.346398e-02 3.226000e-14 1 
    0.636035 4.209919e-02 3.122000e-14 1 
    0.636310 4.275373e-02 3.167800e-14 1 
    0.636585 4.142098e-02 3.066400e-14 1 
    0.636860 3.952887e-02 2.923800e-14 1 
    0.637135 3.908265e-02 2.888300e-14 1 
    0.637410 4.215546e-02 3.112700e-14 1 
    0.637685 3.897259e-02 2.875200e-14 1 
    0.637960 3.851917e-02 2.839300e-14 1 
    0.638235 4.187224e-02 3.083800e-14 1 
    0.638510 4.295747e-02 3.161000e-14 1 
    0.638785 4.179890e-02 3.073100e-14 1 
    0.639060 3.641546e-02 2.675000e-14 1 
    0.639335 3.933939e-02 2.887300e-14 1 
    0.639610 3.965552e-02 2.908000e-14 1 
    0.639885 3.868374e-02 2.834300e-14 1 
    0.640160 3.845336e-02 2.815000e-14 1 
    0.640435 4.083249e-02 2.986600e-14 1 
    0.640710 3.995487e-02 2.919900e-14 1 
    0.640985 3.977142e-02 2.904000e-14 1 
    0.641260 3.677765e-02 2.683100e-14 1 
    0.641535 3.976425e-02 2.898500e-14 1 
    0.641810 4.037778e-02 2.940700e-14 1 
    0.642085 4.055256e-02 2.950900e-14 1 
    0.642360 4.062857e-02 2.953900e-14 1 
    0.642635 4.013612e-02 2.915600e-14 1 
    0.642910 4.290950e-02 3.114400e-14 1 
    0.643185 4.279040e-02 3.103100e-14 1 
    0.643460 4.110735e-02 2.978500e-14 1 
    0.643735 4.442174e-02 3.215900e-14 1 
    0.644010 4.685142e-02 3.388900e-14 1 
    0.644285 5.095115e-02 3.682300e-14 1 
    0.644560 5.143365e-02 3.714000e-14 1 
    0.644835 5.377422e-02 3.879700e-14 1 
    0.645110 5.773484e-02 4.161900e-14 1 
    0.645385 5.986113e-02 4.311500e-14 1 
    0.645660 5.953696e-02 4.284500e-14 1 
    0.645935 5.530550e-02 3.976600e-14 1 
    0.646210 5.405112e-02 3.883100e-14 1 
    0.646485 5.085111e-02 3.650100e-14 1 
    0.646760 4.784917e-02 3.431700e-14 1 
    0.647035 4.536817e-02 3.251000e-14 1 
    0.647310 4.481594e-02 3.208700e-14 1 
    0.647585 4.243428e-02 3.035600e-14 1 
    0.647860 4.510479e-02 3.223900e-14 1 
    0.648135 4.413210e-02 3.151700e-14 1 
    0.648410 4.384582e-02 3.128600e-14 1 
    0.648685 4.351833e-02 3.102600e-14 1 
    0.648960 4.238304e-02 3.019100e-14 1 
    0.649235 4.430872e-02 3.153600e-14 1 
    0.649510 4.237054e-02 3.013100e-14 1 
    0.649785 4.427546e-02 3.145900e-14 1 
    0.650060 4.347342e-02 3.086300e-14 1 
    0.650335 4.580816e-02 3.249300e-14 1 
    0.650610 4.697851e-02 3.329500e-14 1 
    0.650885 4.440289e-02 3.144300e-14 1 
    0.651160 4.342845e-02 3.072700e-14 1 
    0.651435 4.734527e-02 3.347000e-14 1 
    0.651710 4.983876e-02 3.520300e-14 1 
    0.651985 4.734024e-02 3.341000e-14 1 
    0.652260 4.864375e-02 3.430100e-14 1 
    0.652535 4.736763e-02 3.337300e-14 1 
    0.652810 4.641176e-02 3.267200e-14 1 
    0.653085 4.772191e-02 3.356600e-14 1 
    0.653360 4.664083e-02 3.277800e-14 1 
    0.653635 4.710165e-02 3.307400e-14 1 
    0.653910 4.619202e-02 3.240800e-14 1 
    0.654185 4.399408e-02 3.084000e-14 1 
    0.654460 4.572722e-02 3.202800e-14 1 
    0.654735 4.665445e-02 3.265000e-14 1 
    0.655010 4.699541e-02 3.286100e-14 1 
    0.655285 4.286971e-02 2.995100e-14 1 
    0.655560 4.189147e-02 2.924300e-14 1 
    0.655835 4.283274e-02 2.987500e-14 1 
    0.656110 4.299638e-02 2.996400e-14 1 
    0.656385 4.414831e-02 3.074100e-14 1 
    0.656660 4.205229e-02 2.925700e-14 1 
    0.656935 4.357354e-02 3.029000e-14 1 
    0.657210 4.198167e-02 2.915900e-14 1 
    0.657485 4.384538e-02 3.042800e-14 1 
    0.657760 4.310042e-02 2.988600e-14 1 
    0.658035 4.311481e-02 2.987100e-14 1 
    0.658310 4.407105e-02 3.050800e-14 1 
    0.658585 4.383029e-02 3.031600e-14 1 
    0.658860 4.342702e-02 3.001200e-14 1 
    0.659135 4.342417e-02 2.998500e-14 1 
    0.659410 4.456486e-02 3.074700e-14 1 
    0.659685 4.415815e-02 3.044100e-14 1 
    0.659960 4.482216e-02 3.087300e-14 1 
    0.660235 4.431464e-02 3.049800e-14 1 
    0.660510 4.302820e-02 2.958800e-14 1 
    0.660785 4.504637e-02 3.095000e-14 1 
    0.661060 4.226376e-02 2.901400e-14 1 
    0.661335 4.325822e-02 2.967200e-14 1 
    0.661610 4.366919e-02 2.992900e-14 1 
    0.661885 4.371133e-02 2.993300e-14 1 
    0.662160 4.469181e-02 3.057900e-14 1 
    0.662435 4.225253e-02 2.888600e-14 1 
    0.662710 4.661944e-02 3.184500e-14 1 
    0.662985 4.476076e-02 3.055000e-14 1 
    0.663260 4.708105e-02 3.210700e-14 1 
    0.663535 4.638189e-02 3.160400e-14 1 
    0.663810 4.654226e-02 3.168700e-14 1 
    0.664085 4.661611e-02 3.171100e-14 1 
    0.664360 4.507019e-02 3.063400e-14 1 
    0.664635 4.469817e-02 3.035600e-14 1 
    0.664910 4.284443e-02 2.907300e-14 1 
    0.665185 4.439018e-02 3.009700e-14 1 
    0.665460 4.096980e-02 2.775500e-14 1 
    0.665735 4.331128e-02 2.931700e-14 1 
    0.666010 4.310163e-02 2.915100e-14 1 
    0.666285 4.527108e-02 3.059300e-14 1 
    0.666560 4.515148e-02 3.048700e-14 1 
    0.666835 4.354050e-02 2.937500e-14 1 
    0.667110 4.692902e-02 3.163500e-14 1 
    0.667385 4.870479e-02 3.280500e-14 1 
    0.667660 4.845222e-02 3.260800e-14 1 
    0.667935 4.658713e-02 3.132700e-14 1 
    0.668210 4.705861e-02 3.161800e-14 1 
    0.668485 4.934810e-02 3.312900e-14 1 
    0.668760 5.227489e-02 3.506500e-14 1 
    0.669035 5.277296e-02 3.537000e-14 1 
    0.669310 5.595518e-02 3.747200e-14 1 
    0.669585 5.813678e-02 3.890100e-14 1 
    0.669860 6.065695e-02 4.055400e-14 1 
    0.670135 7.037098e-02 4.701000e-14 1 
    0.670410 7.635848e-02 5.096800e-14 1 
    0.670685 8.201539e-02 5.469900e-14 1 
    0.670960 8.755244e-02 5.834400e-14 1 
    0.671235 9.278309e-02 6.177900e-14 1 
    0.671510 1.029659e-01 6.850300e-14 1 
    0.671785 1.136376e-01 7.554100e-14 1 
    0.672060 1.216483e-01 8.080000e-14 1 
    0.672335 1.255104e-01 8.329700e-14 1 
    0.672610 1.274091e-01 8.448800e-14 1 
    0.672885 1.185121e-01 7.852400e-14 1 
    0.673160 1.121532e-01 7.425000e-14 1 
    0.673435 1.096916e-01 7.256100e-14 1 
    0.673710 1.123547e-01 7.426200e-14 1 
    0.673985 1.228595e-01 8.113900e-14 1 
    0.674260 1.331753e-01 8.788000e-14 1 
    0.674535 1.366737e-01 9.011500e-14 1 
    0.674810 1.319628e-01 8.693800e-14 1 
    0.675085 1.180594e-01 7.771500e-14 1 
    0.675360 1.037394e-01 6.823300e-14 1 
    0.675635 8.944321e-02 5.878200e-14 1 
    0.675910 7.688554e-02 5.048800e-14 1 
    0.676185 6.567292e-02 4.309000e-14 1 
    0.676460 5.979130e-02 3.919900e-14 1 
    0.676735 5.590748e-02 3.662300e-14 1 
    0.677010 5.286828e-02 3.460400e-14 1 
    0.677285 5.146935e-02 3.366100e-14 1 
    0.677560 4.916063e-02 3.212500e-14 1 
    0.677835 4.813919e-02 3.143200e-14 1 
    0.678110 4.910865e-02 3.203900e-14 1 
    0.678385 4.731380e-02 3.084300e-14 1 
    0.678660 4.629437e-02 3.015400e-14 1 
    0.678935 4.797443e-02 3.122300e-14 1 
    0.679210 4.789028e-02 3.114300e-14 1 
    0.679485 4.775670e-02 3.103100e-14 1 
    0.679760 4.572681e-02 2.968800e-14 1 
    0.680035 4.409900e-02 2.860800e-14 1 
    0.680310 4.565736e-02 2.959500e-14 1 
    0.680585 4.731547e-02 3.064500e-14 1 
    0.680860 4.749124e-02 3.073400e-14 1 
    0.681135 4.915342e-02 3.178400e-14 1 
    0.681410 4.925502e-02 3.182400e-14 1 
    0.681685 4.745460e-02 3.063600e-14 1 
    0.681960 4.563881e-02 2.944000e-14 1 
    0.682235 4.498522e-02 2.899500e-14 1 
    0.682510 4.408520e-02 2.839200e-14 1 
    0.682785 4.332043e-02 2.787700e-14 1 
    0.683912 4.794758e-02 3.075300e-14 0 
    0.685488 4.794796e-02 3.061200e-14 0 
    0.687068 4.783881e-02 3.040200e-14 0 
    0.688652 4.611051e-02 2.916900e-14 0 
    0.690240 4.828472e-02 3.040400e-14 0 
    0.691831 4.762370e-02 2.985000e-14 0 
    0.693426 4.884689e-02 3.047600e-14 0 
    0.695024 4.964069e-02 3.082900e-14 0 
    0.696626 4.840098e-02 2.992100e-14 0 
    0.698233 4.907470e-02 3.019800e-14 0 
    0.699842 5.022029e-02 3.076100e-14 0 
    0.701455 4.785080e-02 2.917500e-14 0 
    0.703072 4.885433e-02 2.965000e-14 0 
    0.704693 4.851872e-02 2.931100e-14 0 
    0.706318 4.896890e-02 2.944700e-14 0 
    0.707946 4.942378e-02 2.958400e-14 0 
    0.709578 4.976771e-02 2.965300e-14 0 
    0.711214 5.139861e-02 3.048400e-14 0 
    0.712853 5.116488e-02 3.020600e-14 0 
    0.714496 5.296314e-02 3.112400e-14 0 
    0.716143 5.320931e-02 3.112500e-14 0 
    0.717794 5.152282e-02 3.000000e-14 0 
    0.719449 5.058400e-02 2.931800e-14 0 
    0.721108 5.370527e-02 3.098400e-14 0 
    0.722770 5.598001e-02 3.214800e-14 0 
    0.724436 5.164631e-02 2.952300e-14 0 
    0.726106 5.383369e-02 3.063200e-14 0 
    0.727780 5.082477e-02 2.878700e-14 0 
    0.729457 5.094220e-02 2.872100e-14 0 
    0.731139 4.898747e-02 2.749200e-14 0 
    0.732825 5.071198e-02 2.832900e-14 0 
    0.734514 5.106470e-02 2.839500e-14 0 
    0.736207 5.094807e-02 2.820000e-14 0 
    0.737904 5.094908e-02 2.807100e-14 0 
    0.739605 5.310609e-02 2.912500e-14 0 
    0.741310 5.384764e-02 2.939600e-14 0 
    0.743019 5.335458e-02 2.899300e-14 0 
    0.744732 5.311096e-02 2.872800e-14 0 
    0.746449 5.447423e-02 2.933000e-14 0 
    0.748170 5.652067e-02 3.029200e-14 0 
    0.749894 5.639156e-02 3.008400e-14 0 
    0.751623 5.731099e-02 3.043400e-14 0 
    0.753356 5.824339e-02 3.078700e-14 0 
    0.755092 5.691947e-02 2.994900e-14 0 
    0.756833 6.071067e-02 3.179700e-14 0 
    0.758578 6.029466e-02 3.143400e-14 0 
    0.760326 5.811595e-02 3.015900e-14 0 
    0.762079 5.988262e-02 3.093300e-14 0 
    0.763836 6.043911e-02 3.107700e-14 0 
    0.765597 6.170674e-02 3.158300e-14 0 
    0.767361 6.086084e-02 3.100700e-14 0 
    0.769130 6.228151e-02 3.158500e-14 0 
    0.770904 6.358737e-02 3.209900e-14 0 
    0.772681 6.403012e-02 3.217400e-14 0 
    0.774462 6.315204e-02 3.158700e-14 0 
    0.776247 6.243118e-02 3.108300e-14 0 
    0.778037 6.214638e-02 3.079900e-14 0 
    0.779830 6.129593e-02 3.023800e-14 0 
    0.781628 6.229371e-02 3.058900e-14 0 
    0.783430 6.186522e-02 3.023900e-14 0 
    0.785236 6.101830e-02 2.968800e-14 0 
    0.787046 6.004452e-02 2.908000e-14 0 
    0.788860 6.074271e-02 2.928300e-14 0 
    0.790679 6.144620e-02 2.948600e-14 0 
    0.792501 6.074575e-02 2.901600e-14 0 
    0.794328 6.033000e-02 2.868500e-14 0 
    0.796159 6.216355e-02 2.942100e-14 0 
    0.797995 6.131284e-02 2.888500e-14 0 
    0.799834 6.131428e-02 2.875300e-14 0 
    0.801678 6.450227e-02 3.010900e-14 0 
    0.803526 6.145981e-02 2.855700e-14 0 
    0.805378 6.376718e-02 2.949300e-14 0 
    0.807235 6.406376e-02 2.949400e-14 0 
    0.809096 6.540690e-02 2.997400e-14 0 
    0.810961 6.391995e-02 2.915800e-14 0 
    0.812831 6.333636e-02 2.875900e-14 0 
    0.814704 6.090723e-02 2.752900e-14 0 
    0.816582 6.436902e-02 2.896000e-14 0 
    0.818465 6.511728e-02 2.916200e-14 0 
    0.820352 6.407866e-02 2.856500e-14 0 
    0.822243 6.787653e-02 3.011900e-14 0 
    0.824138 6.929912e-02 3.060900e-14 0 
    0.826038 6.882524e-02 3.026000e-14 0 
    0.827942 6.695161e-02 2.930100e-14 0 
    0.829851 6.573189e-02 2.863500e-14 0 
    0.831764 6.898942e-02 2.991600e-14 0 
    0.833681 7.011402e-02 3.026400e-14 0 
    0.835603 6.867581e-02 2.950700e-14 0 
    0.837529 6.836379e-02 2.923800e-14 0 
    0.839460 6.604383e-02 2.811600e-14 0 
    0.841395 7.028247e-02 2.978300e-14 0 
    0.843335 6.996211e-02 2.951100e-14 0 
    0.845279 7.143061e-02 2.999200e-14 0 
    0.847227 7.377242e-02 3.083300e-14 0 
    0.849180 7.143282e-02 2.971800e-14 0 
    0.851138 7.094400e-02 2.937900e-14 0 
    0.853100 7.127388e-02 2.938000e-14 0 
    0.855067 6.981408e-02 2.864600e-14 0 
    0.857038 7.210480e-02 2.945000e-14 0 
    0.859014 7.078969e-02 2.878000e-14 0 
    0.860994 7.244089e-02 2.931600e-14 0 
    0.862979 7.227631e-02 2.911500e-14 0 
    0.864968 6.854979e-02 2.748700e-14 0 
    0.866962 7.244895e-02 2.891700e-14 0 
    0.868960 7.261714e-02 2.885100e-14 0 
    0.870964 7.346071e-02 2.905200e-14 0 
    0.872971 7.162520e-02 2.819600e-14 0 
    0.874984 7.245865e-02 2.839300e-14 0 
    0.877001 7.179579e-02 2.800400e-14 0 
    0.879023 7.397910e-02 2.872300e-14 0 
    0.881049 7.347181e-02 2.839500e-14 0 
    0.883080 7.230067e-02 2.781400e-14 0 
    0.885116 7.501607e-02 2.872600e-14 0 
    0.887156 7.230589e-02 2.756100e-14 0 
    0.889201 7.164337e-02 2.718300e-14 0 
    0.891251 6.985323e-02 2.638200e-14 0 
    0.893305 7.485182e-02 2.814000e-14 0 
    0.895365 7.572121e-02 2.833600e-14 0 
    0.897429 7.332169e-02 2.731200e-14 0 
    0.899498 7.678059e-02 2.846900e-14 0 
    0.901571 7.607821e-02 2.807900e-14 0 
    0.903650 7.785305e-02 2.860200e-14 0 
    0.905733 7.912024e-02 2.893400e-14 0 
    0.907820 7.876004e-02 2.867000e-14 0 
    0.909913 7.504463e-02 2.719200e-14 0 
    0.912011 7.574321e-02 2.731900e-14 0 
    0.914113 7.715397e-02 2.770000e-14 0 
    0.916220 7.715469e-02 2.757300e-14 0 
    0.918333 7.557411e-02 2.688400e-14 0 
    0.920450 7.488650e-02 2.651700e-14 0 
    0.922571 7.896000e-02 2.783100e-14 0 
    0.924698 6.973067e-02 2.446500e-14 0 
    0.926830 8.249682e-02 2.881100e-14 0 
    0.928966 8.384117e-02 2.914600e-14 0 
    0.931108 7.594010e-02 2.627800e-14 0 
    0.933254 7.646765e-02 2.633900e-14 0 
    0.935406 8.137646e-02 2.790100e-14 0 
    0.937562 7.916184e-02 2.701700e-14 0 
    0.939723 8.063692e-02 2.739400e-14 0 
    0.941890 7.953361e-02 2.689500e-14 0 
    0.944061 8.119893e-02 2.733200e-14 0 
    0.946237 7.754752e-02 2.598300e-14 0 
    0.948418 7.863100e-02 2.622500e-14 0 
    0.950605 8.542804e-02 2.836100e-14 0 
    0.952796 8.083836e-02 2.671400e-14 0 
    0.954993 8.582941e-02 2.823300e-14 0 
    0.957194 8.603004e-02 2.816900e-14 0 
    0.959401 8.504654e-02 2.771900e-14 0 
    0.961612 8.683219e-02 2.817100e-14 0 
    0.963829 8.544633e-02 2.759400e-14 0 
    0.966051 8.886138e-02 2.856500e-14 0 
    0.968278 8.804961e-02 2.817400e-14 0 
    0.970510 9.093630e-02 2.896400e-14 0 
    0.972747 9.157047e-02 2.903200e-14 0 
    0.974990 8.907808e-02 2.811200e-14 0 
    0.977237 9.031998e-02 2.837300e-14 0 
    0.979490 8.766044e-02 2.741100e-14 0 
    0.981748 9.285852e-02 2.890300e-14 0 
    0.984011 9.200897e-02 2.850700e-14 0 
    0.986279 9.307885e-02 2.870600e-14 0 
    0.988553 9.201664e-02 2.824800e-14 0 
    0.990832 9.244467e-02 2.824900e-14 0 
    0.993116 9.438365e-02 2.870900e-14 0 
    0.995405 9.266252e-02 2.805600e-14 0 
    0.997700 9.181619e-02 2.767200e-14 0 
    1.000000 9.203333e-02 2.761000e-14 0 
    1.002305 9.203615e-02 2.748400e-14 0 
    1.004615 9.505466e-02 2.825500e-14 0 
    1.006931 9.440516e-02 2.793300e-14 0 
    1.009253 9.572046e-02 2.819200e-14 0 
    1.011580 9.550403e-02 2.799900e-14 0 
    1.013912 9.594831e-02 2.800000e-14 0 
    1.016249 9.573016e-02 2.780800e-14 0 
    1.018591 9.796336e-02 2.832600e-14 0 
    1.020939 9.864829e-02 2.839300e-14 0 
    1.023294 9.865018e-02 2.826300e-14 0 
    1.028017 1.007254e-01 2.859300e-14 0 
    1.032761 1.002706e-01 2.820300e-14 0 
    1.037528 1.050019e-01 2.926300e-14 0 
    1.042318 1.052530e-01 2.906400e-14 0 
    1.047129 1.082079e-01 2.960600e-14 0 
    1.051962 1.107399e-01 3.002100e-14 0 
    1.054386 1.115102e-01 3.009100e-14 0 
    1.076465 1.117949e-01 2.894300e-14 0 
    1.096478 1.097547e-01 2.738700e-14 0 
    1.116863 1.128299e-01 2.713600e-14 0 
    1.137628 1.087471e-01 2.520800e-14 0 
    1.158778 1.143992e-01 2.555900e-14 0 
    1.177606 1.203427e-01 2.603400e-14 0 
    1.199499 1.225808e-01 2.555900e-14 0 
    1.218990 1.173345e-01 2.368900e-14 0 
    1.238796 1.231478e-01 2.407400e-14 0 
    1.258925 1.268865e-01 2.401800e-14 0 
    1.279381 1.260130e-01 2.309600e-14 0 
    1.300169 1.277691e-01 2.267500e-14 0 
    1.321295 1.304419e-01 2.241500e-14 0 
    1.342764 1.331767e-01 2.215900e-14 0 
    1.361444 1.316500e-01 2.130800e-14 0 
    1.383566 1.319560e-01 2.068000e-14 0 
    1.402813 1.334816e-01 2.034900e-14 0 
    1.425607 1.307414e-01 1.929900e-14 0 
    1.445439 1.260123e-01 1.809400e-14 0 
    1.465547 1.286549e-01 1.797000e-14 0 
    1.485935 1.347176e-01 1.830400e-14 0 
    1.506607 1.328703e-01 1.756100e-14 0 
    1.527566 1.404197e-01 1.805300e-14 0 
    1.545255 1.466993e-01 1.843100e-14 0 
    1.566752 1.557515e-01 1.903500e-14 0 
    1.588548 1.586431e-01 1.886000e-14 0 
    1.606941 1.586454e-01 1.843100e-14 0 
    1.629296 1.561085e-01 1.764200e-14 0 
    1.648162 1.593734e-01 1.760100e-14 0 
    1.671091 1.642203e-01 1.764200e-14 0 
    1.690442 1.676551e-01 1.760100e-14 0 
    1.710014 1.735482e-01 1.780500e-14 0 
    1.729816 1.784087e-01 1.788700e-14 0 
    1.749847 1.813091e-01 1.776400e-14 0 
    1.774190 1.800618e-01 1.716100e-14 0 
    1.794734 1.779963e-01 1.657800e-14 0 
    1.811340 1.715610e-01 1.568700e-14 0 
    1.832314 1.657424e-01 1.481000e-14 0 
    1.853532 1.590101e-01 1.388500e-14 0 
    1.874994 1.582841e-01 1.350700e-14 0 
    1.896705 1.557473e-01 1.298800e-14 0 
    1.914256 1.497753e-01 1.226200e-14 0 
    1.936423 1.504643e-01 1.203800e-14 0 
    1.958844 1.532526e-01 1.198200e-14 0 
    1.976970 1.529100e-01 1.173700e-14 0 
    1.999862 1.508058e-01 1.131200e-14 0 
    2.018366 1.477160e-01 1.087800e-14 0 
    2.037042 1.456904e-01 1.053300e-14 0 
    2.060630 1.477110e-01 1.043600e-14 0 
    2.079696 1.466942e-01 1.017500e-14 0 
    2.098940 1.494215e-01 1.017500e-14 0 
    2.118362 1.504644e-01 1.005900e-14 0 
    2.142890 1.522026e-01 9.943600e-15 0 
    2.162719 1.543199e-01 9.897900e-15 0 
    2.182731 1.550324e-01 9.762100e-15 0 
    2.202926 1.561075e-01 9.650400e-15 0 
    2.223311 1.546766e-01 9.387400e-15 0 
    2.243881 1.553902e-01 9.258600e-15 0 
    2.264644 1.543199e-01 9.027000e-15 0 
    2.285600 1.536108e-01 8.821500e-15 0 
    2.306747 1.534387e-01 8.650800e-15 0 
    2.328092 1.529491e-01 8.465800e-15 0 
    2.344228 1.395595e-01 7.618700e-15 0 
    2.365920 1.410552e-01 7.559800e-15 0 
    2.387810 1.264813e-01 6.655000e-15 0 
    2.409905 1.209674e-01 6.248700e-15 0 
    2.426611 1.244267e-01 6.339200e-15 0 
    2.449063 1.171052e-01 5.857300e-15 0 
    2.471725 1.140894e-01 5.602300e-15 0 
    2.488857 1.125896e-01 5.452800e-15 0 
    2.511887 1.047579e-01 4.980900e-15 0 
    2.529297 1.024364e-01 4.803700e-15 0 
    2.546420 9.215855e-02 4.263800e-15 2 
    2.556100 8.845252e-02 4.061400e-15 2 
    2.565770 8.678380e-02 3.954800e-15 2 
    2.575450 8.687386e-02 3.929200e-15 2 
    2.585120 8.662749e-02 3.888800e-15 2 
    2.594800 8.677474e-02 3.866400e-15 2 
    2.604480 8.771507e-02 3.879300e-15 2 
    2.614150 8.880953e-02 3.898700e-15 2 
    2.623830 9.049196e-02 3.943300e-15 2 
    2.633510 9.227978e-02 3.991700e-15 2 
    2.643180 9.209008e-02 3.954400e-15 2 
    2.652860 9.143805e-02 3.897800e-15 2 
    2.662530 9.072587e-02 3.839400e-15 2 
    2.672210 9.193421e-02 3.862400e-15 2 
    2.681890 9.394889e-02 3.918600e-15 2 
    2.691560 9.419534e-02 3.900700e-15 2 
    2.701240 9.381121e-02 3.857000e-15 2 
    2.710920 9.275527e-02 3.786400e-15 2 
    2.720590 9.145923e-02 3.707000e-15 2 
    2.730270 8.957175e-02 3.604800e-15 2 
    2.739940 8.717944e-02 3.483800e-15 2 
    2.749620 8.615087e-02 3.418500e-15 2 
    2.759300 8.653519e-02 3.409700e-15 2 
    2.768970 8.852032e-02 3.463600e-15 2 
    2.778650 8.859213e-02 3.442300e-15 2 
    2.788330 8.988947e-02 3.468500e-15 2 
    2.798000 8.743469e-02 3.350500e-15 2 
    2.807680 8.717096e-02 3.317400e-15 2 
    2.817350 8.581983e-02 3.243600e-15 2 
    2.827030 8.882419e-02 3.334200e-15 2 
    2.836710 9.187977e-02 3.425400e-15 2 
    2.846380 9.733058e-02 3.604000e-15 2 
    2.856060 9.881756e-02 3.634300e-15 2 
    2.865740 9.952141e-02 3.635500e-15 2 
    2.875410 9.337308e-02 3.388000e-15 2 
    2.885090 8.948025e-02 3.225000e-15 2 
    2.894760 8.545552e-02 3.059400e-15 2 
    2.904440 8.395280e-02 2.985600e-15 2 
    2.914120 8.224311e-02 2.905400e-15 2 
    2.923790 8.126250e-02 2.851800e-15 2 
    2.933470 7.921702e-02 2.761700e-15 2 
    2.943150 7.980711e-02 2.764000e-15 2 
    2.952820 7.968427e-02 2.741700e-15 2 
    2.962500 7.840548e-02 2.680100e-15 2 
    2.972170 7.590879e-02 2.577900e-15 2 
    2.981850 7.538154e-02 2.543400e-15 2 
    2.991530 7.668912e-02 2.570800e-15 2 
    3.001200 7.934444e-02 2.642700e-15 2 
    3.010880 7.891430e-02 2.611500e-15 2 
    3.020560 7.715679e-02 2.537000e-15 2 
    3.030230 7.718331e-02 2.521700e-15 2 
    3.039910 7.840109e-02 2.545200e-15 2 
    3.049580 7.939358e-02 2.561100e-15 2 
    3.059260 7.904672e-02 2.533800e-15 2 
    3.068940 7.729048e-02 2.461900e-15 2 
    3.078610 7.690319e-02 2.434200e-15 2 
    3.088290 7.614450e-02 2.395100e-15 2 
    3.097970 7.716644e-02 2.412100e-15 2 
    3.107640 7.613593e-02 2.365100e-15 2 
    3.117320 7.689279e-02 2.373800e-15 2 
    3.126990 7.765740e-02 2.382600e-15 2 
    3.136670 8.078555e-02 2.463300e-15 2 
    3.146350 8.210330e-02 2.488100e-15 2 
    3.156020 8.244938e-02 2.483300e-15 2 
    3.165700 8.303945e-02 2.485800e-15 2 
    3.175380 8.193477e-02 2.437800e-15 2 
    3.185050 7.949941e-02 2.351000e-15 2 
    3.194730 7.837758e-02 2.303800e-15 2 
    3.204400 7.742207e-02 2.262000e-15 2 
    3.214080 7.855513e-02 2.281300e-15 2 
    3.223760 7.980846e-02 2.303800e-15 2 
    3.233430 8.363707e-02 2.399900e-15 2 
    3.243110 8.461540e-02 2.413500e-15 2 
    3.252790 8.640153e-02 2.449800e-15 2 
    3.262460 8.675635e-02 2.445300e-15 2 
    3.272140 9.122279e-02 2.556000e-15 2 
    3.281810 9.574418e-02 2.666900e-15 2 
    3.291490 1.008853e-01 2.793600e-15 2 
    3.301170 1.031324e-01 2.839100e-15 2 
    3.310840 1.085424e-01 2.970600e-15 2 
    3.320520 1.148232e-01 3.124200e-15 2 
    3.330200 1.235895e-01 3.343200e-15 2 
    3.339870 1.247843e-01 3.356000e-15 2 
    3.349550 1.273524e-01 3.405300e-15 2 
    3.359220 1.304509e-01 3.468100e-15 2 
    3.368900 1.339013e-01 3.539400e-15 2 
    3.378580 1.341772e-01 3.526400e-15 2 
    3.388250 1.288771e-01 3.367800e-15 2 
    3.397930 1.187884e-01 3.086500e-15 2 
    3.407610 1.091549e-01 2.820100e-15 2 
    3.417280 1.035510e-01 2.660200e-15 2 
    3.426960 1.007288e-01 2.573100e-15 2 
    3.436630 9.755018e-02 2.477900e-15 2 
    3.446310 9.718993e-02 2.454900e-15 2 
    3.455990 9.619590e-02 2.416200e-15 2 
    3.465660 9.961358e-02 2.488100e-15 2 
    3.475340 9.983664e-02 2.479800e-15 2 
    3.485020 1.018996e-01 2.517000e-15 2 
    3.494690 1.012853e-01 2.488000e-15 2 
    3.504370 1.017162e-01 2.484800e-15 2 
    3.514040 9.831445e-02 2.388500e-15 2 
    3.523720 9.805390e-02 2.369100e-15 2 
    3.533400 9.868494e-02 2.371300e-15 2 
    3.543070 1.000753e-01 2.391600e-15 2 
    3.552750 9.740002e-02 2.315000e-15 2 
    3.562430 1.017557e-01 2.405400e-15 2 
    3.572100 1.019558e-01 2.397100e-15 2 
    3.581780 1.001101e-01 2.341000e-15 2 
    3.591450 9.610682e-02 2.235300e-15 2 
    3.601130 9.382880e-02 2.170600e-15 2 
    3.610810 9.319961e-02 2.144500e-15 2 
    3.620480 9.287804e-02 2.125700e-15 2 
    3.630160 9.014234e-02 2.052100e-15 2 
    3.639840 8.941368e-02 2.024700e-15 2 
    3.649510 8.666180e-02 1.952000e-15 2 
    3.659190 8.564925e-02 1.919000e-15 2 
    3.668860 8.515583e-02 1.897900e-15 2 
    3.678540 8.677400e-02 1.923800e-15 2 
    3.688220 8.694109e-02 1.917400e-15 2 
    3.697890 8.772121e-02 1.924500e-15 2 
    3.707570 8.464833e-02 1.847400e-15 2 
    3.717250 8.429409e-02 1.830100e-15 2 
    3.726920 8.184411e-02 1.767700e-15 2 
    3.736600 8.218139e-02 1.765800e-15 2 
    3.746270 8.054422e-02 1.721700e-15 2 
    3.755950 8.184505e-02 1.740500e-15 2 
    3.765630 8.170498e-02 1.728600e-15 2 
    3.775300 8.298033e-02 1.746600e-15 2 
    3.784980 8.206930e-02 1.718600e-15 2 
    3.794660 8.407357e-02 1.751600e-15 2 
    3.804330 8.475828e-02 1.756900e-15 2 
    3.814010 8.601933e-02 1.774000e-15 2 
    3.823680 8.502813e-02 1.744700e-15 2 
    3.833360 8.221167e-02 1.678400e-15 2 
    3.843040 8.066311e-02 1.638500e-15 2 
    3.852710 8.046100e-02 1.626200e-15 2 
    3.862390 8.165149e-02 1.642000e-15 2 
    3.872070 8.405034e-02 1.681800e-15 2 
    3.881740 8.616832e-02 1.715600e-15 2 
    3.891420 8.798170e-02 1.743000e-15 2 
    3.901090 8.774988e-02 1.729800e-15 2 
    3.910770 8.756394e-02 1.717600e-15 2 
    3.920450 8.530310e-02 1.665000e-15 2 
    3.930120 8.356716e-02 1.623100e-15 2 
    3.939800 8.119570e-02 1.569300e-15 2 
    3.949480 8.062809e-02 1.550700e-15 2 
    3.959150 7.949771e-02 1.521500e-15 2 
    3.968830 7.739817e-02 1.474100e-15 2 
    3.978500 7.605048e-02 1.441400e-15 2 
    3.988180 7.694589e-02 1.451300e-15 2 
    3.997860 7.832679e-02 1.470200e-15 2 
    4.007530 7.892030e-02 1.474200e-15 2 
    4.017210 8.094809e-02 1.504800e-15 2 
    4.026890 8.325753e-02 1.540300e-15 2 
    4.036560 8.330486e-02 1.533800e-15 2 
    4.046240 8.365030e-02 1.532800e-15 2 
    4.055910 8.240009e-02 1.502700e-15 2 
    4.065590 8.054041e-02 1.461800e-15 2 
    4.075270 7.920825e-02 1.430800e-15 2 
    4.084940 7.857227e-02 1.412600e-15 2 
    4.094620 7.839740e-02 1.402800e-15 2 
    4.104300 7.813963e-02 1.391600e-15 2 
    4.113970 8.007663e-02 1.419400e-15 2 
    4.123650 8.323131e-02 1.468400e-15 2 
    4.133320 8.770527e-02 1.540100e-15 2 
    4.143000 8.922653e-02 1.559500e-15 2 
    4.152680 8.551098e-02 1.487600e-15 2 
    4.162350 8.070636e-02 1.397500e-15 2 
    4.172030 7.591265e-02 1.308400e-15 2 
    4.181710 7.447003e-02 1.277600e-15 2 
    4.191380 7.198644e-02 1.229300e-15 2 
    4.201060 7.289587e-02 1.239100e-15 2 
    4.210730 7.383467e-02 1.249300e-15 2 
    4.220410 7.728567e-02 1.301700e-15 2 
    4.230090 7.913173e-02 1.326700e-15 2 
    4.239760 8.180080e-02 1.365200e-15 2 
    4.249440 8.680355e-02 1.442100e-15 2 
    4.259120 9.430435e-02 1.559600e-15 2 
    4.268790 9.818926e-02 1.616500e-15 2 
    4.278470 9.811033e-02 1.607900e-15 2 
    4.288140 9.233300e-02 1.506400e-15 2 
    4.297820 8.862509e-02 1.439400e-15 2 
    4.307500 8.423768e-02 1.362000e-15 2 
    4.317170 8.061537e-02 1.297600e-15 2 
    4.326850 7.586629e-02 1.215700e-15 2 
    4.336530 7.305308e-02 1.165400e-15 2 
    4.346200 7.086064e-02 1.125400e-15 2 
    4.355880 7.048094e-02 1.114400e-15 2 
    4.365550 6.999378e-02 1.101800e-15 2 
    4.375230 7.128080e-02 1.117100e-15 2 
    4.384910 7.207725e-02 1.124600e-15 2 
    4.394580 7.120457e-02 1.106100e-15 2 
    4.404260 6.995388e-02 1.081900e-15 2 
    4.413940 7.021625e-02 1.081200e-15 2 
    4.423610 7.106564e-02 1.089500e-15 2 
    4.433290 7.443648e-02 1.136200e-15 2 
    4.442960 7.616968e-02 1.157600e-15 2 
    4.452640 7.615168e-02 1.152300e-15 2 
    4.462320 7.609817e-02 1.146500e-15 2 
    4.471990 7.652166e-02 1.147900e-15 2 
    4.481670 7.776384e-02 1.161500e-15 2 
    4.491350 8.021821e-02 1.193000e-15 2 
    4.501020 8.230630e-02 1.218800e-15 2 
    4.510700 8.352204e-02 1.231500e-15 2 
    4.520370 7.771634e-02 1.141000e-15 2 
    4.530050 7.514920e-02 1.098600e-15 2 
    4.539730 7.423415e-02 1.080600e-15 2 
    4.549400 7.341240e-02 1.064100e-15 2 
    4.559080 7.296301e-02 1.053100e-15 2 
    4.568760 7.305054e-02 1.049900e-15 2 
    4.578430 7.408677e-02 1.060300e-15 2 
    4.588110 7.329873e-02 1.044600e-15 2 
    4.597780 7.000725e-02 9.935000e-16 2 
    4.607460 6.931592e-02 9.795600e-16 2 
    4.617140 6.654337e-02 9.364400e-16 2 
    4.626810 6.628294e-02 9.288800e-16 2 
    4.636490 6.654552e-02 9.286700e-16 2 
    4.646170 6.868302e-02 9.545100e-16 2 
    4.655840 6.944539e-02 9.611000e-16 2 
    4.665520 7.031418e-02 9.690900e-16 2 
    4.675190 6.956628e-02 9.548200e-16 2 
    4.684870 6.963371e-02 9.518000e-16 2 
    4.694550 7.077908e-02 9.634700e-16 2 
    4.704220 7.328983e-02 9.935500e-16 2 
    4.713900 7.408433e-02 1.000200e-15 2 
    4.723580 7.671681e-02 1.031500e-15 2 
    4.733250 7.789004e-02 1.043000e-15 2 
    4.742930 8.410274e-02 1.121600e-15 2 
    4.752600 9.055964e-02 1.202800e-15 2 
    4.762280 1.032438e-01 1.365700e-15 2 
    4.771960 1.170612e-01 1.542200e-15 2 
    4.781630 1.282060e-01 1.682200e-15 2 
    4.791310 1.248842e-01 1.632000e-15 2 
    4.800990 1.187664e-01 1.545800e-15 2 
    4.810660 1.062470e-01 1.377300e-15 2 
    4.820340 9.853476e-02 1.272200e-15 2 
    4.830010 9.078868e-02 1.167500e-15 2 
    4.839690 8.570328e-02 1.097700e-15 2 
    4.849370 8.174297e-02 1.042800e-15 2 
    4.859040 8.098322e-02 1.029000e-15 2 
    4.868720 7.982073e-02 1.010200e-15 2 
    4.878400 7.859629e-02 9.907600e-16 2 
    4.888070 7.694814e-02 9.661500e-16 2 
    4.897750 7.620973e-02 9.531000e-16 2 
    4.907420 7.624444e-02 9.497799e-16 2 
    4.917100 7.570092e-02 9.393000e-16 2 
    4.926780 7.425565e-02 9.177500e-16 2 
    4.936450 7.223403e-02 8.892700e-16 2 
    4.946130 6.757991e-02 8.287200e-16 2 
    4.955810 6.589299e-02 8.048800e-16 2 
    5.005469 7.218182e-02 8.642900e-16 2 
    5.055524 7.873496e-02 9.241800e-16 0 
    5.106079 8.557366e-02 9.846600e-16 0 
    5.157140 9.271397e-02 1.045800e-15 0 
    5.208711 1.001574e-01 1.107500e-15 0 
    5.260798 1.079179e-01 1.169800e-15 0 
    5.313406 1.160064e-01 1.232700e-15 0 
    5.335773 1.195285e-01 1.259500e-15 3 
    5.366758 1.297534e-01 1.351500e-15 3 
    5.397744 1.225348e-01 1.261700e-15 3 
    5.428729 1.421882e-01 1.447400e-15 3 
    5.459714 1.812057e-01 1.823700e-15 3 
    5.490700 1.575021e-01 1.567300e-15 3 
    5.521685 1.029715e-01 1.013200e-15 3 
    5.552670 9.947889e-02 9.679400e-16 3 
    5.583656 1.105128e-01 1.063400e-15 3 
    5.614641 1.761152e-01 1.676000e-15 3 
    5.645627 2.152816e-01 2.026300e-15 3 
    5.676612 1.666621e-01 1.551600e-15 3 
    5.707598 1.118466e-01 1.030000e-15 3 
    5.738583 1.259184e-01 1.147100e-15 3 
    5.769568 1.529136e-01 1.378100e-15 3 
    5.800553 1.521491e-01 1.356600e-15 3 
    5.831539 1.554566e-01 1.371400e-15 3 
    5.862525 1.576401e-01 1.376000e-15 3 
    5.893510 1.535335e-01 1.326100e-15 3 
    5.924495 1.478514e-01 1.263700e-15 3 
    5.955481 1.442474e-01 1.220100e-15 3 
    5.986466 1.375932e-01 1.151800e-15 3 
    6.017451 1.412058e-01 1.169900e-15 3 
    6.048437 1.443345e-01 1.183600e-15 3 
    6.079422 1.486013e-01 1.206200e-15 3 
    6.110407 1.582719e-01 1.271700e-15 3 
    6.141393 1.793304e-01 1.426400e-15 3 
    6.172378 1.997110e-01 1.572600e-15 3 
    6.203363 2.168701e-01 1.690700e-15 3 
    6.234349 2.679369e-01 2.068100e-15 3 
    6.265334 3.284940e-01 2.510500e-15 3 
    6.296319 3.618142e-01 2.738000e-15 3 
    6.327305 4.283456e-01 3.209800e-15 3 
    6.358290 4.625216e-01 3.432200e-15 3 
    6.389276 4.388184e-01 3.224800e-15 3 
    6.420261 3.862978e-01 2.811500e-15 3 
    6.451246 3.337949e-01 2.406100e-15 3 
    6.482232 2.798207e-01 1.997800e-15 3 
    6.513217 2.799428e-01 1.979700e-15 3 
    6.544202 2.602000e-01 1.822700e-15 3 
    6.575188 2.454055e-01 1.702900e-15 3 
    6.606173 2.331912e-01 1.603000e-15 3 
    6.637158 2.222417e-01 1.513500e-15 3 
    6.668145 2.175039e-01 1.467500e-15 3 
    6.699129 2.175103e-01 1.454000e-15 3 
    6.730114 2.130952e-01 1.411400e-15 3 
    6.761100 2.255301e-01 1.480100e-15 3 
    6.792085 2.365671e-01 1.538400e-15 3 
    6.823071 2.440997e-01 1.573000e-15 3 
    6.854056 2.400424e-01 1.532900e-15 3 
    6.885041 2.443823e-01 1.546600e-15 3 
    6.916027 2.374831e-01 1.489500e-15 3 
    6.947012 2.405166e-01 1.495100e-15 3 
    6.977998 2.505064e-01 1.543400e-15 3 
    7.008983 2.721572e-01 1.662000e-15 3 
    7.039968 4.108289e-01 2.486800e-15 3 
    7.070954 6.339462e-01 3.803800e-15 3 
    7.101939 5.984582e-01 3.559600e-15 3 
    7.132924 4.671674e-01 2.754600e-15 3 
    7.163910 4.711324e-01 2.754000e-15 3 
    7.194895 3.850048e-01 2.231200e-15 3 
    7.225881 3.239143e-01 1.861100e-15 3 
    7.256866 3.283657e-01 1.870600e-15 3 
    7.287851 3.317069e-01 1.873600e-15 3 
    7.318838 3.418543e-01 1.914600e-15 3 
    7.349822 3.434584e-01 1.907400e-15 3 
    7.380807 3.470867e-01 1.911400e-15 3 
    7.411793 3.556105e-01 1.942000e-15 3 
    7.442778 3.608427e-01 1.954200e-15 3 
    7.473763 3.804988e-01 2.043600e-15 3 
    7.504748 4.048370e-01 2.156400e-15 3 
    7.533706 3.721539e-01 1.967100e-15 3 
    7.535734 4.429977e-01 2.340300e-15 3 
    7.566720 4.723177e-01 2.474800e-15 3 
    7.595799 4.438758e-01 2.308000e-15 3 
    7.597705 5.132340e-01 2.667300e-15 3 
    7.657894 5.160027e-01 2.639700e-15 3 
    7.719988 5.959027e-01 2.999600e-15 3 
    7.782082 6.561157e-01 3.250200e-15 3 
    7.844176 6.647204e-01 3.240900e-15 3 
    7.906271 6.603672e-01 3.169300e-15 3 
    7.968365 6.528540e-01 3.084600e-15 3 
    8.030459 6.348871e-01 2.953500e-15 3 
    8.092554 5.949060e-01 2.725200e-15 3 
    8.154648 5.791778e-01 2.612900e-15 3 
    8.216741 5.959309e-01 2.648000e-15 3 
    8.278836 4.785858e-01 2.094800e-15 3 
    8.340930 3.978308e-01 1.715500e-15 3 
    8.403025 3.736961e-01 1.587700e-15 3 
    8.465119 3.677740e-01 1.539700e-15 3 
    8.527213 3.598585e-01 1.484700e-15 3 
    8.589307 3.560931e-01 1.448000e-15 3 
    8.651402 3.581418e-01 1.435500e-15 3 
    8.713495 3.677301e-01 1.453000e-15 3 
    8.775590 3.709106e-01 1.444900e-15 3 
    8.837684 3.539964e-01 1.359700e-15 3 
    8.899778 3.142896e-01 1.190400e-15 3 
    8.961872 2.727235e-01 1.018700e-15 3 
    9.023966 2.277787e-01 8.391500e-16 3 
    9.086060 1.935454e-01 7.033200e-16 3 
    9.148155 1.727057e-01 6.191000e-16 3 
    9.210249 1.643358e-01 5.811800e-16 3 
    9.272344 1.452198e-01 5.067200e-16 3 
    9.334438 1.307702e-01 4.502500e-16 3 
    9.396532 1.266236e-01 4.302300e-16 3 
    9.458626 1.206026e-01 4.044100e-16 3 
    9.520720 1.167859e-01 3.865200e-16 3 
    9.582815 1.173837e-01 3.834800e-16 3 
    9.644909 1.151175e-01 3.712500e-16 3 
    9.707002 1.173489e-01 3.736200e-16 3 
    9.769098 1.222876e-01 3.844100e-16 3 
    9.831192 2.281607e-01 7.081900e-16 3 
    9.893286 4.130740e-01 1.266100e-15 3 
    9.955380 2.624058e-01 7.942900e-16 3 
   10.017470 1.250391e-01 3.738100e-16 3 
   10.079570 1.054314e-01 3.113200e-16 3 
   10.141659 1.059423e-01 3.090100e-16 3 
   10.203760 1.069487e-01 3.081600e-16 3 
   10.265850 1.131829e-01 3.221900e-16 3 
   10.327949 1.141474e-01 3.210400e-16 3 
   10.390041 1.154233e-01 3.207600e-16 3 
   10.452130 1.194798e-01 3.281000e-16 3 
   10.514230 1.246109e-01 3.381600e-16 3 
   10.576320 1.265419e-01 3.393800e-16 3 
   10.638420 1.362035e-01 3.610400e-16 3 
   10.700510 1.498245e-01 3.925500e-16 3 
   10.762600 1.731789e-01 4.485200e-16 3 
   10.824700 1.846078e-01 4.726500e-16 3 
   10.886791 1.816867e-01 4.598800e-16 3 
   10.948890 1.836254e-01 4.595300e-16 3 
   11.010980 1.852613e-01 4.584100e-16 3 
   11.073080 1.880190e-01 4.600300e-16 3 
   11.135170 1.950229e-01 4.718600e-16 3 
   11.197260 2.176699e-01 5.208300e-16 3 
   11.259360 2.496967e-01 5.908900e-16 3 
   11.321450 2.883943e-01 6.750000e-16 3 
   11.383550 3.986257e-01 9.228500e-16 3 
   11.445640 6.712140e-01 1.537100e-15 3 
   11.507740 8.941544e-01 2.025600e-15 3 
   11.569830 8.428778e-01 1.889000e-15 3 
   11.631920 7.382504e-01 1.636900e-15 3 
   11.694020 6.341103e-01 1.391100e-15 3 
   11.756110 5.510739e-01 1.196200e-15 3 
   11.818209 4.984825e-01 1.070700e-15 3 
   11.880299 4.641109e-01 9.864800e-16 3 
   11.942400 4.426145e-01 9.310300e-16 3 
   12.004490 4.376169e-01 9.110200e-16 3 
   12.066580 4.490813e-01 9.252900e-16 3 
   12.128680 4.681024e-01 9.546300e-16 3 
   12.190770 5.104426e-01 1.030400e-15 3 
   12.252870 5.447320e-01 1.088500e-15 3 
   12.314959 5.575967e-01 1.103000e-15 3 
   12.377051 5.626720e-01 1.101900e-15 3 
   12.439150 5.735932e-01 1.112100e-15 3 
   12.501240 6.576304e-01 1.262400e-15 3 
   12.563340 8.303831e-01 1.578300e-15 3 
   12.625430 7.846272e-01 1.476700e-15 3 
   12.687530 6.918637e-01 1.289400e-15 3 
   12.749620 7.009819e-01 1.293700e-15 3 
   12.811710 7.444292e-01 1.360600e-15 3 
   12.873810 7.990636e-01 1.446400e-15 3 
   12.935900 8.516364e-01 1.526800e-15 3 
   12.998000 9.383935e-01 1.666300e-15 3 
   13.060090 1.270659e+00 2.234900e-15 3 
   13.122180 1.730124e+00 3.014300e-15 3 
   13.184280 1.301082e+00 2.245500e-15 3 
   13.246370 8.174976e-01 1.397700e-15 3 
   13.308470 7.131846e-01 1.208000e-15 3 
   13.370559 6.747445e-01 1.132300e-15 3 
   13.432659 6.738094e-01 1.120300e-15 3 
   13.494750 6.823597e-01 1.124100e-15 3 
   13.556841 6.829559e-01 1.114800e-15 3 
   13.618941 6.939877e-01 1.122500e-15 3 
   13.681030 7.030126e-01 1.126800e-15 3 
   13.743130 7.175308e-01 1.139700e-15 3 
   13.805220 7.353370e-01 1.157500e-15 3 
   13.867320 7.511339e-01 1.171800e-15 3 
   13.929409 7.571637e-01 1.170700e-15 3 
   13.991500 7.806339e-01 1.196300e-15 3 
   14.053600 7.572949e-01 1.150300e-15 3 
   14.115691 7.496551e-01 1.128700e-15 3 
   14.177789 7.457460e-01 1.113000e-15 3 
   14.239880 7.496561e-01 1.109100e-15 3 
   14.301980 7.497997e-01 1.099700e-15 3 
   14.364070 7.266132e-01 1.056500e-15 3 
   14.426159 7.116114e-01 1.025800e-15 3 
   14.488261 7.036873e-01 1.005700e-15 3 
   14.541691 7.847309e-01 1.113300e-15 3 
   14.633380 8.172849e-01 1.145000e-15 3 
   14.725080 9.238318e-01 1.278200e-15 3 
   14.816770 8.053337e-01 1.100500e-15 3 
   14.908459 8.039222e-01 1.085100e-15 3 
   15.000150 8.019910e-01 1.069300e-15 3 
   15.091850 8.077268e-01 1.063900e-15 3 
   15.183541 7.972070e-01 1.037400e-15 3 
   15.275230 8.413197e-01 1.081700e-15 3 
   15.366930 9.019070e-01 1.145800e-15 3 
   15.458620 7.820896e-01 9.818300e-16 3 
   15.550309 8.325592e-01 1.032900e-15 3 
   15.642000 8.324563e-01 1.020700e-15 3 
   15.733700 8.290426e-01 1.004700e-15 3 
   15.825391 9.111117e-01 1.091400e-15 3 
   15.917080 1.337706e+00 1.584000e-15 3 
   16.008780 1.183335e+00 1.385200e-15 3 
   16.100470 9.052142e-01 1.047600e-15 3 
   16.192159 8.869753e-01 1.014900e-15 3 
   16.283859 9.024417e-01 1.021000e-15 3 
   16.375550 8.853168e-01 9.904400e-16 3 
   16.467239 8.937762e-01 9.888000e-16 3 
   16.558930 8.772970e-01 9.598500e-16 3 
   16.650631 1.133741e+00 1.226800e-15 3 
   16.742319 1.034139e+00 1.106800e-15 3 
   16.834009 1.125034e+00 1.191000e-15 3 
   16.925700 1.103423e+00 1.155500e-15 3 
   17.017400 1.076896e+00 1.115600e-15 3 
   17.109091 1.081799e+00 1.108700e-15 3 
   17.200781 1.058316e+00 1.073100e-15 3 
   17.292481 1.173194e+00 1.177000e-15 3 
   17.384170 1.648149e+00 1.636100e-15 3 
   17.475861 2.212970e+00 2.173800e-15 3 
   17.567561 1.354324e+00 1.316500e-15 3 
   17.659250 1.183052e+00 1.138100e-15 3 
   17.750941 1.211649e+00 1.153600e-15 3 
   17.842630 1.183766e+00 1.115500e-15 3 
   17.934330 1.156082e+00 1.078300e-15 3 
   18.026020 1.125258e+00 1.038900e-15 3 
   18.117709 1.154788e+00 1.055400e-15 3 
   18.209409 1.137991e+00 1.029600e-15 3 
   18.301100 1.171809e+00 1.049600e-15 3 
   18.392789 1.191587e+00 1.056700e-15 3 
   18.484489 1.135493e+00 9.969900e-16 3 
   18.576180 1.127232e+00 9.799900e-16 3 
   18.667870 1.146147e+00 9.866700e-16 3 
   18.759559 1.148717e+00 9.792400e-16 3 
   18.851259 1.163387e+00 9.821200e-16 3 
   18.942950 1.164122e+00 9.732500e-16 3 
   19.034639 1.189694e+00 9.850700e-16 3 
   19.126341 1.372789e+00 1.125800e-15 3 
   19.218031 1.413190e+00 1.147900e-15 3 
   19.309719 1.312361e+00 1.055900e-15 3 
   19.401409 1.273160e+00 1.014700e-15 3 
   19.493111 1.308403e+00 1.033000e-15 3 
   19.584800 1.320868e+00 1.033100e-15 3 
   19.676491 1.372110e+00 1.063200e-15 3 
   19.768191 1.386101e+00 1.064100e-15 3 
   19.859880 1.393205e+00 1.059700e-15 3 
   19.951570 1.439006e+00 1.084500e-15 3 
   20.043261 1.504487e+00 1.123500e-15 3 
   20.134961 1.513961e+00 1.120300e-15 3 
   20.226650 1.559965e+00 1.143900e-15 3 
   20.318341 1.551434e+00 1.127400e-15 3 
   20.410041 1.642257e+00 1.182700e-15 3 
   20.555241 1.545711e+00 1.097500e-15 3 
   20.730739 1.840534e+00 1.284800e-15 3 
   20.906339 1.816630e+00 1.246900e-15 3 
   21.082041 1.772921e+00 1.196700e-15 3 
   21.257830 2.001294e+00 1.328600e-15 3 
   21.433709 1.997641e+00 1.304500e-15 3 
   21.609689 1.959909e+00 1.259100e-15 3 
   21.785761 2.119334e+00 1.339600e-15 3 
   21.961930 1.919337e+00 1.193800e-15 3 
   22.138200 2.209860e+00 1.352700e-15 3 
   22.314559 2.180643e+00 1.313800e-15 3 
   22.491020 2.381186e+00 1.412200e-15 3 
   22.667570 2.522507e+00 1.472800e-15 3 
   22.844219 2.470999e+00 1.420500e-15 3 
   23.020969 2.423353e+00 1.371800e-15 3 
   23.197809 2.582167e+00 1.439500e-15 3 
   23.374750 2.724427e+00 1.495900e-15 3 
   23.551791 2.780830e+00 1.504000e-15 3 
   23.728920 2.736480e+00 1.458000e-15 3 
   23.906161 2.830281e+00 1.485700e-15 3 
   24.083481 3.008533e+00 1.556100e-15 3 
   24.260909 3.179180e+00 1.620400e-15 3 
   24.438441 3.182081e+00 1.598400e-15 3 
   24.616061 3.223656e+00 1.596000e-15 3 
   24.793780 3.432661e+00 1.675200e-15 3 
   24.971600 3.942070e+00 1.896500e-15 3 
   25.149509 3.707702e+00 1.758600e-15 3 
   25.327530 3.787748e+00 1.771400e-15 3 
   25.505641 3.750133e+00 1.729400e-15 3 
   25.683861 3.918604e+00 1.782100e-15 3 
   25.862169 4.549530e+00 2.040600e-15 3 
   26.040581 4.161120e+00 1.840900e-15 3 
   26.219091 4.247238e+00 1.853500e-15 3 
   26.397700 4.375217e+00 1.883600e-15 3 
   26.576409 4.669150e+00 1.983200e-15 3 
   26.755222 4.685662e+00 1.963700e-15 3 
   26.934131 4.600545e+00 1.902500e-15 3 
   27.113141 4.784912e+00 1.952700e-15 3 
   27.292250 5.633428e+00 2.268900e-15 3 
   27.471459 4.849078e+00 1.927600e-15 3 
   27.650781 4.891946e+00 1.919500e-15 3 
   27.830191 5.040315e+00 1.952300e-15 3 
   28.009700 5.256963e+00 2.010200e-15 3 
   28.189319 4.792195e+00 1.809200e-15 3 
   28.369041 5.418467e+00 2.019800e-15 3 
   28.548850 5.467267e+00 2.012400e-15 3 
   28.728769 5.556479e+00 2.019700e-15 3 
   28.908791 5.803784e+00 2.083400e-15 3 
   29.088922 5.880003e+00 2.084700e-15 3 
   29.269150 6.055037e+00 2.120400e-15 3 
   29.449472 5.924909e+00 2.049500e-15 3 
   29.629909 6.191174e+00 2.115600e-15 3 
   29.810441 6.276030e+00 2.118700e-15 3 
   29.991078 6.371509e+00 2.125100e-15 3 
   30.171819 6.322302e+00 2.083500e-15 3 
   30.352659 6.850360e+00 2.230700e-15 3 
   30.533609 6.723135e+00 2.163400e-15 3 
   30.714659 6.850585e+00 2.178500e-15 3 
   30.895809 6.871813e+00 2.159700e-15 3 
   31.077069 7.717903e+00 2.397400e-15 3 
   31.258441 6.964373e+00 2.138300e-15 3 
   31.439909 6.977925e+00 2.117800e-15 3 
   31.621481 7.276071e+00 2.183000e-15 3 
   31.803150 7.609403e+00 2.257000e-15 3 
   31.984941 7.544894e+00 2.212500e-15 3 
   32.166822 7.685095e+00 2.228200e-15 3 
   32.348819 8.048217e+00 2.307300e-15 3 
   32.530909 7.657217e+00 2.170700e-15 3 
   32.713119 8.098525e+00 2.270300e-15 3 
   32.895431 8.018069e+00 2.222900e-15 3 
   33.077838 8.134226e+00 2.230300e-15 3 
   33.260359 8.425580e+00 2.284900e-15 3 
   33.442991 9.312078e+00 2.497800e-15 3 
   33.625728 9.322536e+00 2.473500e-15 3 
   33.808572 8.826015e+00 2.316500e-15 3 
   33.991519 9.521844e+00 2.472300e-15 3 
   34.174569 9.519952e+00 2.445400e-15 3 
   34.357731 9.136318e+00 2.321900e-15 3 
   34.541013 9.362509e+00 2.354200e-15 3 
   34.724381 9.810649e+00 2.440900e-15 3 
   34.907872 9.874394e+00 2.431000e-15 3 
