# UGC 04881      
# 
# An Atlas of Galaxy Spectral Energy Distributions from the Ultraviolet to the Mid-Infrared
# Brown et al. (2014)
# http://dx.doi.org/10.5072/03/529D3551F0117
# http://dx.doi.org/10.17909/t9-5bxk-dh29
# 
# The Spectral Energy Distributions of Active Galactic Nuclei
# Brown et al. (2019)
# http://dx.doi.org/10.17909/t9-3dbt-8734
# 
# Column 1: Observed wavelength (um)
# Column 2: f_nu (Jy)
# Column 3: f_lam (erg/s/cm2/A)
# Column 4: Source (0 = model, 1 = Optical Spectrun, 2 = Akari, 3 = Spitzer IRS)
# 
    0.010399 6.857106e-19 1.902300e-27 0 
    0.010593 1.189069e-18 3.179000e-27 0 
    0.010814 1.866989e-18 4.789500e-27 0 
    0.011015 2.958961e-18 7.316300e-27 0 
    0.011220 4.766134e-18 1.135800e-26 0 
    0.011429 8.633246e-18 1.982800e-26 0 
    0.011858 1.919497e-17 4.095300e-26 0 
    0.012274 3.909697e-17 7.785600e-26 0 
    0.012589 1.937084e-16 3.666800e-25 0 
    0.013002 3.566039e-16 6.328300e-25 0 
    0.013213 4.647002e-16 7.985300e-25 0 
    0.013305 5.385159e-16 9.126200e-25 0 
    0.013614 7.818919e-16 1.265600e-24 0 
    0.013709 1.005023e-15 1.604300e-24 0 
    0.013932 1.271165e-15 1.964700e-24 0 
    0.014223 2.056585e-15 3.049900e-24 0 
    0.014555 2.872024e-15 4.067100e-24 0 
    0.014859 9.574921e-15 1.301000e-23 0 
    0.015276 3.207636e-14 4.123700e-23 0 
    0.015704 4.625851e-14 5.627200e-23 0 
    0.016106 6.639599e-14 7.678700e-23 0 
    0.016520 9.531850e-14 1.047800e-22 0 
    0.016827 1.230750e-13 1.304000e-22 0 
    0.017258 1.738384e-13 1.751000e-22 0 
    0.017660 2.361314e-13 2.271400e-22 0 
    0.017989 2.986650e-13 2.768800e-22 0 
    0.018408 3.991932e-13 3.534200e-22 0 
    0.018707 4.922423e-13 4.219800e-22 0 
    0.018923 5.651337e-13 4.734700e-22 0 
    0.019320 7.382135e-13 5.933200e-22 0 
    0.019861 1.021334e-12 7.767600e-22 0 
    0.020184 1.242171e-12 9.147200e-22 0 
    0.020559 1.567410e-12 1.112500e-21 0 
    0.020989 1.991379e-12 1.356100e-21 0 
    0.021281 2.361321e-12 1.564200e-21 0 
    0.021827 2.979518e-12 1.876200e-21 0 
    0.022439 4.267572e-12 2.542700e-21 0 
    0.022856 5.250087e-12 3.015000e-21 0 
    0.023174 6.028031e-12 3.367400e-21 0 
    0.023605 7.382104e-12 3.974600e-21 0 
    0.023878 1.273982e-11 6.703300e-21 0 
    0.024322 2.350464e-11 1.192000e-20 0 
    0.024946 3.607283e-11 1.739000e-20 0 
    0.025586 4.170297e-11 1.911100e-20 0 
    0.026182 5.397376e-11 2.362100e-20 0 
    0.026730 5.347741e-11 2.245400e-20 0 
    0.027040 6.763732e-11 2.775200e-20 0 
    0.027416 8.001678e-11 3.193700e-20 0 
    0.027925 9.250314e-11 3.558700e-20 0 
    0.028445 1.062129e-10 3.938100e-20 0 
    0.028973 1.213823e-10 4.338000e-20 0 
    0.029512 1.390485e-10 4.789500e-20 0 
    0.030130 1.549401e-10 5.120200e-20 0 
    0.030761 1.824601e-10 5.784800e-20 0 
    0.031261 2.019161e-10 6.198500e-20 0 
    0.031989 2.405292e-10 7.051600e-20 0 
    0.033037 3.056114e-10 8.400200e-20 0 
    0.034119 3.768444e-10 9.711600e-20 0 
    0.035156 4.541271e-10 1.102300e-19 0 
    0.036141 5.397102e-10 1.239600e-19 0 
    0.037068 6.341179e-10 1.384500e-19 0 
    0.038019 7.501856e-10 1.557000e-19 0 
    0.038994 8.633074e-10 1.703300e-19 0 
    0.039994 9.641906e-10 1.808400e-19 0 
    0.041020 1.156535e-09 2.062000e-19 0 
    0.042073 1.346426e-09 2.281900e-19 0 
    0.043053 1.510714e-09 2.445100e-19 0 
    0.043853 1.648790e-09 2.572100e-19 0 
    0.044668 1.803688e-09 2.712000e-19 0 
    0.045814 2.070937e-09 2.960000e-19 0 
    0.046881 2.302298e-09 3.142600e-19 0 
    0.047753 2.501315e-09 3.290700e-19 0 
    0.048865 2.774371e-09 3.485700e-19 0 
    0.049888 3.091437e-09 3.726400e-19 0 
    0.050933 3.335584e-09 3.857400e-19 0 
    0.052000 3.734044e-09 4.142800e-19 0 
    0.052602 3.927991e-09 4.258800e-19 0 
    0.053211 4.843599e-09 5.132000e-19 0 
    0.054075 5.225864e-09 5.361500e-19 0 
    0.055081 5.677671e-09 5.614200e-19 0 
    0.056105 5.931555e-09 5.653100e-19 0 
    0.057148 6.985094e-09 6.416400e-19 0 
    0.058210 8.150128e-09 7.215900e-19 0 
    0.059293 9.314857e-09 7.948600e-19 0 
    0.060256 9.731231e-09 8.040600e-19 0 
    0.061376 1.148588e-08 9.147200e-19 0 
    0.062373 1.233565e-08 9.512400e-19 0 
    0.063387 1.349483e-08 1.007600e-18 0 
    0.064417 1.656362e-08 1.197500e-18 0 
    0.065464 1.837209e-08 1.286100e-18 0 
    0.066527 1.986908e-08 1.346800e-18 0 
    0.067608 2.286487e-08 1.500700e-18 0 
    0.068391 2.495511e-08 1.600600e-18 0 
    0.069183 2.730098e-08 1.711200e-18 0 
    0.070146 2.905204e-08 1.771300e-18 0 
    0.071121 3.028006e-08 1.795900e-18 0 
    0.072277 3.900909e-08 2.240200e-18 0 
    0.073282 3.946061e-08 2.204400e-18 0 
    0.074473 4.865890e-08 2.632000e-18 0 
    0.075509 5.298696e-08 2.788000e-18 0 
    0.076384 5.730272e-08 2.946400e-18 0 
    0.077446 6.686040e-08 3.344200e-18 0 
    0.078524 7.433135e-08 3.616500e-18 0 
    0.079433 8.094167e-08 3.848500e-18 0 
    0.080538 9.314643e-08 4.308100e-18 0 
    0.081658 1.045125e-07 4.702100e-18 0 
    0.082604 1.138078e-07 5.003700e-18 0 
    0.083753 1.244992e-07 5.324600e-18 0 
    0.084723 1.343288e-07 5.614200e-18 0 
    0.085704 1.531689e-07 6.255900e-18 0 
    0.086696 1.337106e-07 5.336900e-18 0 
    0.087902 1.762655e-07 6.843700e-18 0 
    0.088920 1.893064e-07 7.182700e-18 0 
    0.089950 2.119195e-07 7.857600e-18 0 
    0.090991 2.366821e-07 8.576100e-18 0 
    0.092045 2.680206e-07 9.490500e-18 0 
    0.093111 2.945661e-07 1.019300e-17 0 
    0.093972 3.056024e-07 1.038200e-17 0 
    0.095060 4.967914e-07 1.649300e-17 0 
    0.096161 3.657472e-06 1.186600e-16 0 
    0.097275 8.554032e-06 2.712000e-16 0 
    0.098175 1.726514e-05 5.373900e-16 0 
    0.099312 2.571415e-05 7.821500e-16 0 
    0.100231 3.014211e-05 9.001000e-16 0 
    0.101391 4.810075e-06 1.403700e-16 0 
    0.102329 2.748941e-05 7.875700e-16 0 
    0.103514 3.049067e-05 8.536700e-16 0 
    0.104472 4.668452e-05 1.283200e-15 0 
    0.105439 4.636319e-05 1.251100e-15 0 
    0.106414 2.005243e-05 5.312400e-16 0 
    0.107647 3.429046e-05 8.877500e-16 0 
    0.108643 6.952932e-05 1.767200e-15 0 
    0.109648 7.066132e-05 1.763200e-15 0 
    0.110662 5.716878e-05 1.400500e-15 0 
    0.111686 7.098402e-05 1.707200e-15 0 
    0.112720 5.730315e-05 1.353000e-15 0 
    0.113763 7.946401e-05 1.842000e-15 0 
    0.114815 7.873459e-05 1.791800e-15 0 
    0.115878 7.783597e-05 1.739000e-15 0 
    0.116950 7.213865e-05 1.582300e-15 0 
    0.118032 9.553794e-05 2.057300e-15 0 
    0.119124 8.895568e-05 1.880600e-15 0 
    0.119950 9.753627e-05 2.033700e-15 0 
    0.121060 1.040347e-04 2.129600e-15 0 
    0.122180 7.364954e-05 1.480100e-15 0 
    0.123027 1.064540e-04 2.110000e-15 0 
    0.124165 7.399108e-05 1.439800e-15 0 
    0.125314 5.384764e-05 1.028700e-15 0 
    0.126183 3.623828e-05 6.827900e-16 0 
    0.127350 7.927910e-05 1.466500e-15 0 
    0.128233 1.256518e-04 2.292400e-15 0 
    0.129420 1.432755e-04 2.566200e-15 0 
    0.130317 1.400152e-04 2.473400e-15 0 
    0.131522 1.225104e-04 2.124700e-15 0 
    0.132434 1.645019e-04 2.813800e-15 0 
    0.133660 1.778996e-04 2.987400e-15 0 
    0.134586 1.426188e-04 2.362100e-15 0 
    0.135519 1.439357e-04 2.351200e-15 0 
    0.136773 1.871433e-04 3.001200e-15 0 
    0.137721 1.828805e-04 2.892600e-15 0 
    0.138676 1.648805e-04 2.572100e-15 0 
    0.139637 2.028493e-04 3.121000e-15 0 
    0.140929 2.014500e-04 3.042900e-15 0 
    0.141906 1.828804e-04 2.724500e-15 0 
    0.142889 1.977753e-04 2.906000e-15 0 
    0.143880 2.047236e-04 2.966800e-15 0 
    0.144877 1.824604e-04 2.607900e-15 0 
    0.145881 1.941632e-04 2.737100e-15 0 
    0.146893 2.014481e-04 2.800800e-15 0 
    0.148252 2.133908e-04 2.912700e-15 0 
    0.149279 2.163575e-04 2.912700e-15 0 
    0.149969 2.323664e-04 3.099500e-15 0 
    0.150314 2.383247e-04 3.164400e-15 0 
    0.151356 2.361423e-04 3.092400e-15 0 
    0.152405 2.219057e-04 2.866100e-15 0 
    0.153462 2.260307e-04 2.879300e-15 0 
    0.154170 2.339760e-04 2.953200e-15 0 
    0.155239 2.438753e-04 3.035900e-15 0 
    0.156315 2.350587e-04 2.886000e-15 0 
    0.157036 2.114292e-04 2.572100e-15 0 
    0.157761 2.302355e-04 2.775200e-15 0 
    0.158489 2.260270e-04 2.699500e-15 0 
    0.159588 2.000622e-04 2.356600e-15 0 
    0.160694 2.270750e-04 2.638100e-15 0 
    0.161436 2.173536e-04 2.502000e-15 0 
    0.162555 2.249927e-04 2.554400e-15 0 
    0.163682 2.455647e-04 2.749700e-15 0 
    0.164816 2.631317e-04 2.906000e-15 0 
    0.165959 2.749006e-04 2.994300e-15 0 
    0.166725 2.730058e-04 2.946400e-15 0 
    0.167880 2.800050e-04 2.980500e-15 0 
    0.169044 2.692609e-04 2.826800e-15 0 
    0.169824 2.918531e-04 3.035900e-15 0 
    0.171002 3.028074e-04 3.106600e-15 0 
    0.172187 2.832506e-04 2.866100e-15 0 
    0.172982 3.163535e-04 3.171700e-15 0 
    0.173780 2.839054e-04 2.820300e-15 0 
    0.174181 3.252141e-04 3.215800e-15 0 
    0.174985 3.444824e-04 3.375100e-15 0 
    0.176198 3.282259e-04 3.171700e-15 0 
    0.177011 3.200133e-04 3.064000e-15 0 
    0.178238 3.098621e-04 2.926100e-15 0 
    0.179473 3.148904e-04 2.932800e-15 0 
    0.180302 3.413208e-04 3.149800e-15 0 
    0.181552 3.397633e-04 3.092400e-15 0 
    0.182390 3.691208e-04 3.328800e-15 0 
    0.183231 3.405371e-04 3.042900e-15 0 
    0.184502 3.582360e-04 3.157100e-15 0 
    0.185353 3.691180e-04 3.223200e-15 0 
    0.186638 4.047333e-04 3.485700e-15 0 
    0.187499 4.056636e-04 3.461700e-15 0 
    0.188799 3.820913e-04 3.215800e-15 0 
    0.189671 3.955221e-04 3.298300e-15 0 
    0.190546 3.838579e-04 3.171700e-15 0 
    0.191867 3.582391e-04 2.919400e-15 0 
    0.192753 3.665834e-04 2.960000e-15 0 
    0.193642 3.847340e-04 3.078100e-15 0 
    0.194984 4.228320e-04 3.336500e-15 0 
    0.195884 3.955235e-04 3.092400e-15 0 
    0.196789 3.865233e-04 2.994300e-15 0 
    0.198153 4.160740e-04 3.179000e-15 0 
    0.199067 4.075310e-04 3.085200e-15 0 
    0.199986 4.047300e-04 3.035900e-15 0 
    0.200909 4.160765e-04 3.092400e-15 0 
    0.202302 4.499552e-04 3.298300e-15 0 
    0.203236 4.287170e-04 3.113800e-15 0 
    0.204645 4.799260e-04 3.437900e-15 0 
    0.205589 4.967902e-04 3.526100e-15 0 
    0.206063 4.744274e-04 3.351900e-15 0 
    0.207491 4.700760e-04 3.275600e-15 0 
    0.208449 4.877228e-04 3.367400e-15 0 
    0.209411 4.766087e-04 3.260500e-15 0 
    0.210378 5.036959e-04 3.414200e-15 0 
    0.211349 4.877194e-04 3.275600e-15 0 
    0.212324 5.154316e-04 3.430000e-15 0 
    0.213796 5.025370e-04 3.298300e-15 0 
    0.214783 5.095251e-04 3.313500e-15 0 
    0.215774 5.535641e-04 3.566900e-15 0 
    0.216770 5.612707e-04 3.583400e-15 0 
    0.217771 5.372372e-04 3.398500e-15 0 
    0.218776 5.447122e-04 3.414200e-15 0 
    0.219786 5.586898e-04 3.469700e-15 0 
    0.220801 5.730275e-04 3.526100e-15 0 
    0.221820 5.347667e-04 3.260500e-15 0 
    0.222844 5.625588e-04 3.398500e-15 0 
    0.223872 5.890781e-04 3.526100e-15 0 
    0.224905 5.756599e-04 3.414200e-15 0 
    0.225944 5.783192e-04 3.398500e-15 0 
    0.226986 5.809866e-04 3.382900e-15 0 
    0.228034 6.168355e-04 3.558700e-15 0 
    0.229087 6.055766e-04 3.461700e-15 0 
    0.230144 5.783562e-04 3.275800e-15 0 
    0.231207 5.680663e-04 3.188000e-15 0 
    0.232274 6.231724e-04 3.465200e-15 0 
    0.233346 6.009141e-04 3.310800e-15 0 
    0.234423 5.794548e-04 3.163300e-15 0 
    0.235505 5.987189e-04 3.238500e-15 0 
    0.236592 6.257904e-04 3.353900e-15 0 
    0.237684 6.555904e-04 3.481400e-15 0 
    0.238781 6.235120e-04 3.280700e-15 0 
    0.239332 6.338011e-04 3.319500e-15 0 
    0.240436 6.111618e-04 3.171600e-15 0 
    0.241546 4.856983e-04 2.497400e-15 0 
    0.242661 5.748881e-04 2.928900e-15 0 
    0.243781 5.556430e-04 2.804900e-15 0 
    0.244906 6.237411e-04 3.119800e-15 0 
    0.246037 5.691426e-04 2.820600e-15 0 
    0.246604 5.974930e-04 2.947500e-15 0 
    0.247742 5.502367e-04 2.689500e-15 0 
    0.248886 5.994758e-04 2.903300e-15 0 
    0.250035 5.820796e-04 2.793200e-15 0 
    0.251189 6.056366e-04 2.879600e-15 0 
    0.251768 6.596486e-04 3.122000e-15 0 
    0.252930 6.419963e-04 3.010600e-15 0 
    0.254097 6.914297e-04 3.212700e-15 0 
    0.255270 6.902041e-04 3.177600e-15 0 
    0.256448 6.921389e-04 3.157300e-15 0 
    0.257040 6.672805e-04 3.029900e-15 0 
    0.258226 6.895003e-04 3.102100e-15 0 
    0.259418 6.603250e-04 2.943600e-15 0 
    0.260615 7.533253e-04 3.327400e-15 0 
    0.261216 6.593204e-04 2.898800e-15 0 
    0.261818 6.733078e-04 2.946700e-15 0 
    0.262422 6.506164e-04 2.834300e-15 0 
    0.263633 6.722963e-04 2.901900e-15 0 
    0.264241 6.693727e-04 2.876000e-15 0 
    0.265461 7.360309e-04 3.133400e-15 0 
    0.266686 7.196777e-04 3.035700e-15 0 
    0.267917 7.751230e-04 3.239600e-15 0 
    0.268534 7.717508e-04 3.210700e-15 0 
    0.269774 7.668619e-04 3.161100e-15 0 
    0.271019 7.463631e-04 3.048400e-15 0 
    0.271644 7.363058e-04 2.993500e-15 0 
    0.272898 7.930415e-04 3.194600e-15 0 
    0.274157 8.366289e-04 3.339300e-15 0 
    0.274789 9.282320e-04 3.687900e-15 0 
    0.276058 9.680451e-04 3.810800e-15 0 
    0.276694 8.709927e-04 3.413000e-15 0 
    0.277971 9.273690e-04 3.600600e-15 0 
    0.279254 9.407845e-04 3.619200e-15 0 
    0.279898 8.945714e-04 3.425600e-15 0 
    0.281190 9.394046e-04 3.564300e-15 0 
    0.282488 8.914398e-04 3.351300e-15 0 
    0.283139 8.958204e-04 3.352300e-15 0 
    0.284446 9.559999e-04 3.544700e-15 0 
    0.285102 8.139424e-04 3.004100e-15 0 
    0.286418 8.527839e-04 3.118600e-15 0 
    0.287078 8.994091e-04 3.274000e-15 0 
    0.288403 9.576364e-04 3.454000e-15 0 
    0.289734 8.942186e-04 3.195700e-15 0 
    0.290402 7.056169e-04 2.510100e-15 0 
    0.291743 7.688346e-04 2.709900e-15 0 
    0.292415 9.816434e-04 3.444100e-15 0 
    0.293765 1.064628e-03 3.701000e-15 0 
    0.294442 1.033533e-03 3.576400e-15 0 
    0.295801 1.015271e-03 3.481000e-15 0 
    0.296483 9.676271e-04 3.302400e-15 0 
    0.297852 1.098923e-03 3.716100e-15 0 
    0.298538 1.109398e-03 3.734300e-15 0 
    0.299916 1.115165e-03 3.719300e-15 0 
    0.300608 1.118088e-03 3.711900e-15 0 
    0.302691 1.252745e-03 4.101900e-15 0 
    0.304789 1.219698e-03 3.938900e-15 0 
    0.306902 1.220782e-03 3.888300e-15 0 
    0.308319 1.264464e-03 3.990500e-15 0 
    0.310456 1.292110e-03 4.021800e-15 0 
    0.312608 1.335656e-03 4.100300e-15 0 
    0.314775 1.358597e-03 4.113500e-15 0 
    0.316957 1.388348e-03 4.145900e-15 0 
    0.319154 1.428576e-03 4.207500e-15 0 
    0.321366 1.466590e-03 4.260200e-15 0 
    0.323594 1.495268e-03 4.283900e-15 0 
    0.325087 1.492752e-03 4.237500e-15 0 
    0.327341 1.532525e-03 4.290700e-15 0 
    0.329610 1.566122e-03 4.324600e-15 0 
    0.331894 1.507452e-03 4.105500e-15 0 
    0.333426 1.586808e-03 4.282000e-15 0 
    0.335738 1.530888e-03 4.074400e-15 0 
    0.338065 1.672528e-03 4.390300e-15 0 
    0.339625 1.764627e-03 4.589600e-15 0 
    0.341979 1.786835e-03 4.583600e-15 0 
    0.344350 1.813476e-03 4.588100e-15 0 
    0.345144 1.822484e-03 4.589700e-15 0 
    0.345939 1.874131e-03 4.698100e-15 0 
    0.346737 1.936209e-03 4.831400e-15 0 
    0.347536 1.815906e-03 4.510400e-15 0 
    0.348337 1.858828e-03 4.595800e-15 0 
    0.349140 1.907146e-03 4.693600e-15 0 
    0.349945 1.881621e-03 4.609500e-15 0 
    0.350752 1.720614e-03 4.195700e-15 0 
    0.351560 1.794015e-03 4.354600e-15 0 
    0.352371 1.958749e-03 4.732600e-15 0 
    0.353183 1.959388e-03 4.712400e-15 0 
    0.353997 1.924278e-03 4.606700e-15 0 
    0.354813 1.969794e-03 4.694000e-15 0 
    0.355631 2.049122e-03 4.860600e-15 0 
    0.356451 2.007760e-03 4.740600e-15 0 
    0.357273 2.050516e-03 4.819300e-15 0 
    0.358096 1.815562e-03 4.247500e-15 0 
    0.358922 2.124024e-03 4.946300e-15 0 
    0.359749 1.937796e-03 4.491900e-15 0 
    0.360579 2.002005e-03 4.619400e-15 0 
    0.361410 1.925820e-03 4.423200e-15 0 
    0.362243 2.012608e-03 4.601300e-15 0 
    0.363078 1.994873e-03 4.539800e-15 0 
    0.363915 2.028008e-03 4.594000e-15 0 
    0.364754 2.052182e-03 4.627400e-15 0 
    0.365595 1.996965e-03 4.482200e-15 0 
    0.366437 2.063107e-03 4.609400e-15 0 
    0.367000 1.379350e-03 3.072300e-15 1 
    0.367275 2.701865e-03 6.009000e-15 1 
    0.367550 2.344764e-03 5.207000e-15 1 
    0.367825 1.793158e-03 3.976100e-15 1 
    0.368100 1.965348e-03 4.351400e-15 1 
    0.368375 2.747295e-03 6.073600e-15 1 
    0.368650 2.547045e-03 5.622500e-15 1 
    0.368925 2.107278e-03 4.644800e-15 1 
    0.369200 2.313839e-03 5.092500e-15 1 
    0.369475 2.135954e-03 4.694000e-15 1 
    0.369750 2.085816e-03 4.577000e-15 1 
    0.370025 1.509161e-03 3.306700e-15 1 
    0.370300 2.255704e-03 4.935100e-15 1 
    0.370575 2.117015e-03 4.624800e-15 1 
    0.370850 2.132398e-03 4.651500e-15 1 
    0.371125 2.461348e-03 5.361100e-15 1 
    0.371400 1.820000e-03 3.958300e-15 1 
    0.371675 1.919902e-03 4.169400e-15 1 
    0.371950 2.315972e-03 5.022100e-15 1 
    0.372225 2.543389e-03 5.507100e-15 1 
    0.372500 2.449834e-03 5.296700e-15 1 
    0.372775 1.946198e-03 4.201600e-15 1 
    0.373050 2.005015e-03 4.322200e-15 1 
    0.373325 2.089784e-03 4.498300e-15 1 
    0.373600 2.114684e-03 4.545200e-15 1 
    0.373875 2.493161e-03 5.350800e-15 1 
    0.374150 2.154372e-03 4.616900e-15 1 
    0.374425 1.770277e-03 3.788200e-15 1 
    0.374700 2.476658e-03 5.292000e-15 1 
    0.374975 2.150947e-03 4.589300e-15 1 
    0.375250 1.653515e-03 3.522800e-15 1 
    0.375525 2.185701e-03 4.649800e-15 1 
    0.375800 2.212582e-03 4.700100e-15 1 
    0.376075 2.234821e-03 4.740400e-15 1 
    0.376350 2.553285e-03 5.408000e-15 1 
    0.376625 2.304484e-03 4.873900e-15 1 
    0.376900 2.421256e-03 5.113400e-15 1 
    0.377175 2.398283e-03 5.057500e-15 1 
    0.377450 2.590172e-03 5.454200e-15 1 
    0.377725 2.562940e-03 5.389000e-15 1 
    0.378000 1.970466e-03 4.137200e-15 1 
    0.378275 2.319664e-03 4.863300e-15 1 
    0.378550 2.057312e-03 4.307000e-15 1 
    0.378825 2.404052e-03 5.025600e-15 1 
    0.379100 1.952489e-03 4.075700e-15 1 
    0.379375 2.231467e-03 4.651300e-15 1 
    0.379650 2.277511e-03 4.740400e-15 1 
    0.379925 2.301357e-03 4.783100e-15 1 
    0.380200 2.104822e-03 4.368300e-15 1 
    0.380475 2.677359e-03 5.548500e-15 1 
    0.380750 2.218919e-03 4.591800e-15 1 
    0.381025 2.701510e-03 5.582400e-15 1 
    0.381300 2.419285e-03 4.992000e-15 1 
    0.381575 2.245387e-03 4.626500e-15 1 
    0.381850 2.365029e-03 4.866000e-15 1 
    0.382125 2.376954e-03 4.883500e-15 1 
    0.382400 2.259201e-03 4.634900e-15 1 
    0.382675 2.717344e-03 5.566800e-15 1 
    0.382950 2.360294e-03 4.828400e-15 1 
    0.383225 2.478237e-03 5.062400e-15 1 
    0.383500 2.781725e-03 5.674200e-15 1 
    0.383775 2.690914e-03 5.481100e-15 1 
    0.384050 2.233213e-03 4.542300e-15 1 
    0.384325 2.341332e-03 4.755400e-15 1 
    0.384600 2.791147e-03 5.660900e-15 1 
    0.384875 2.533743e-03 5.131500e-15 1 
    0.385150 2.292405e-03 4.636100e-15 1 
    0.385425 2.311030e-03 4.667100e-15 1 
    0.385700 2.321966e-03 4.682500e-15 1 
    0.385975 2.235445e-03 4.501600e-15 1 
    0.386250 3.079461e-03 6.192400e-15 1 
    0.386525 3.054416e-03 6.133300e-15 1 
    0.386800 3.320738e-03 6.658600e-15 1 
    0.387075 3.784981e-03 7.578700e-15 1 
    0.387350 4.552514e-03 9.102600e-15 1 
    0.387625 4.943278e-03 9.869900e-15 1 
    0.387900 4.275503e-03 8.524500e-15 1 
    0.388175 3.413300e-03 6.795800e-15 1 
    0.388450 2.793640e-03 5.554200e-15 1 
    0.388725 2.978019e-03 5.912400e-15 1 
    0.389000 3.115750e-03 6.177100e-15 1 
    0.389275 2.842191e-03 5.626800e-15 1 
    0.389550 2.841757e-03 5.618000e-15 1 
    0.389825 2.904226e-03 5.733400e-15 1 
    0.390100 2.802510e-03 5.524800e-15 1 
    0.390375 3.010720e-03 5.926900e-15 1 
    0.390650 2.960431e-03 5.819700e-15 1 
    0.390925 3.021909e-03 5.932200e-15 1 
    0.391200 3.053403e-03 5.985600e-15 1 
    0.391475 2.871700e-03 5.621500e-15 1 
    0.391750 2.743600e-03 5.363200e-15 1 
    0.392025 2.603195e-03 5.081600e-15 1 
    0.392300 2.928652e-03 5.708900e-15 1 
    0.392575 3.083022e-03 6.001400e-15 1 
    0.392850 3.379594e-03 6.569500e-15 1 
    0.393125 3.751583e-03 7.282400e-15 1 
    0.393400 3.513545e-03 6.810800e-15 1 
    0.393675 3.442777e-03 6.664300e-15 1 
    0.393950 3.605062e-03 6.968700e-15 1 
    0.394225 3.444426e-03 6.648900e-15 1 
    0.394500 3.008800e-03 5.799900e-15 1 
    0.394775 2.831486e-03 5.450500e-15 1 
    0.395050 2.628386e-03 5.052500e-15 1 
    0.395325 2.867355e-03 5.504200e-15 1 
    0.395600 3.434170e-03 6.583100e-15 1 
    0.395875 3.593364e-03 6.878700e-15 1 
    0.396150 3.716530e-03 7.104600e-15 1 
    0.396425 3.518284e-03 6.716300e-15 1 
    0.396700 3.644867e-03 6.948300e-15 1 
    0.396975 3.663790e-03 6.974700e-15 1 
    0.397250 3.653981e-03 6.946400e-15 1 
    0.397525 3.468673e-03 6.585000e-15 1 
    0.397800 3.296082e-03 6.248700e-15 1 
    0.398075 3.092736e-03 5.855100e-15 1 
    0.398350 2.685758e-03 5.077600e-15 1 
    0.398625 2.562876e-03 4.838600e-15 1 
    0.398900 2.476775e-03 4.669600e-15 1 
    0.399175 2.763817e-03 5.203600e-15 1 
    0.399450 3.292101e-03 6.189700e-15 1 
    0.399725 3.571990e-03 6.706700e-15 1 
    0.400000 3.848427e-03 7.215800e-15 1 
    0.400275 3.814039e-03 7.141500e-15 1 
    0.400550 3.737510e-03 6.988600e-15 1 
    0.400825 4.147134e-03 7.743900e-15 1 
    0.401100 4.356288e-03 8.123300e-15 1 
    0.401375 4.355282e-03 8.110300e-15 1 
    0.401650 4.680779e-03 8.704500e-15 1 
    0.401925 4.497592e-03 8.352400e-15 1 
    0.402200 4.728386e-03 8.769000e-15 1 
    0.402475 4.373248e-03 8.099300e-15 1 
    0.402750 3.957054e-03 7.318500e-15 1 
    0.403025 3.796781e-03 7.012500e-15 1 
    0.403300 3.675693e-03 6.779600e-15 1 
    0.403575 3.545360e-03 6.530300e-15 1 
    0.403850 3.367962e-03 6.195100e-15 1 
    0.404125 3.014669e-03 5.537700e-15 1 
    0.404400 3.271332e-03 6.001000e-15 1 
    0.404675 3.517277e-03 6.443400e-15 1 
    0.404950 3.359496e-03 6.146000e-15 1 
    0.405225 3.761716e-03 6.872500e-15 1 
    0.405500 3.875950e-03 7.071600e-15 1 
    0.405775 4.174950e-03 7.606800e-15 1 
    0.406050 4.202704e-03 7.647000e-15 1 
    0.406325 4.242575e-03 7.709100e-15 1 
    0.406600 4.721696e-03 8.568100e-15 1 
    0.406875 4.935350e-03 8.943700e-15 1 
    0.407150 4.423713e-03 8.005700e-15 1 
    0.407425 4.364123e-03 7.887200e-15 1 
    0.407700 4.121074e-03 7.437900e-15 1 
    0.407975 4.536809e-03 8.177200e-15 1 
    0.408250 3.661642e-03 6.590900e-15 1 
    0.408525 3.381134e-03 6.077800e-15 1 
    0.408800 3.187431e-03 5.721900e-15 1 
    0.409075 3.289114e-03 5.896500e-15 1 
    0.409350 3.714914e-03 6.650900e-15 1 
    0.409625 3.721193e-03 6.653200e-15 1 
    0.409900 3.965729e-03 7.080900e-15 1 
    0.410175 4.223754e-03 7.531500e-15 1 
    0.410450 4.263001e-03 7.591300e-15 1 
    0.410725 4.593059e-03 8.168100e-15 1 
    0.411000 4.299264e-03 7.635400e-15 1 
    0.411275 4.050115e-03 7.183300e-15 1 
    0.411550 4.118597e-03 7.295000e-15 1 
    0.411825 3.800337e-03 6.722300e-15 1 
    0.412100 3.127127e-03 5.524100e-15 1 
    0.412375 2.966237e-03 5.232900e-15 1 
    0.412650 2.892660e-03 5.096300e-15 1 
    0.412925 2.932778e-03 5.160100e-15 1 
    0.413200 3.340529e-03 5.869700e-15 1 
    0.413475 3.880543e-03 6.809500e-15 1 
    0.413750 3.958804e-03 6.937600e-15 1 
    0.414025 4.425008e-03 7.744300e-15 1 
    0.414300 4.471911e-03 7.816000e-15 1 
    0.414575 4.339951e-03 7.575300e-15 1 
    0.414850 4.938252e-03 8.608200e-15 1 
    0.415125 4.783215e-03 8.326900e-15 1 
    0.415400 5.044363e-03 8.769900e-15 1 
    0.415675 5.054673e-03 8.776200e-15 1 
    0.415950 5.202370e-03 9.020700e-15 1 
    0.416225 5.404901e-03 9.359500e-15 1 
    0.416500 5.156925e-03 8.918300e-15 1 
    0.416775 4.647381e-03 8.026500e-15 1 
    0.417050 5.238387e-03 9.035300e-15 1 
    0.417325 5.792625e-03 9.978100e-15 1 
    0.417600 5.477815e-03 9.423400e-15 1 
    0.417875 5.228691e-03 8.983000e-15 1 
    0.418150 5.700965e-03 9.781500e-15 1 
    0.418425 5.483314e-03 9.395700e-15 1 
    0.418700 5.567368e-03 9.527200e-15 1 
    0.418975 5.410964e-03 9.247400e-15 1 
    0.419250 5.420003e-03 9.250700e-15 1 
    0.419525 5.125097e-03 8.735900e-15 1 
    0.419800 5.387707e-03 9.171500e-15 1 
    0.420075 5.619053e-03 9.552800e-15 1 
    0.420350 5.134496e-03 8.717600e-15 1 
    0.420625 5.414684e-03 9.181300e-15 1 
    0.420900 5.110088e-03 8.653500e-15 1 
    0.421175 5.196415e-03 8.788200e-15 1 
    0.421450 5.168686e-03 8.729900e-15 1 
    0.421725 5.383460e-03 9.080800e-15 1 
    0.422000 5.730506e-03 9.653600e-15 1 
    0.422275 5.650959e-03 9.507200e-15 1 
    0.422550 5.313425e-03 8.927700e-15 1 
    0.422825 5.058429e-03 8.488200e-15 1 
    0.423100 5.142942e-03 8.618800e-15 1 
    0.423375 5.240746e-03 8.771300e-15 1 
    0.423650 5.274538e-03 8.816400e-15 1 
    0.423925 5.047762e-03 8.426400e-15 1 
    0.424200 5.137808e-03 8.565600e-15 1 
    0.424475 5.156303e-03 8.585300e-15 1 
    0.424750 5.038442e-03 8.378200e-15 1 
    0.425025 5.344299e-03 8.875300e-15 1 
    0.425300 4.907578e-03 8.139500e-15 1 
    0.425575 4.942482e-03 8.186800e-15 1 
    0.425850 4.366140e-03 7.222800e-15 1 
    0.426125 4.331166e-03 7.155700e-15 1 
    0.426400 4.206154e-03 6.940200e-15 1 
    0.426675 3.835584e-03 6.320600e-15 1 
    0.426950 4.204555e-03 6.919700e-15 1 
    0.427225 4.394623e-03 7.223200e-15 1 
    0.427500 4.956654e-03 8.136500e-15 1 
    0.427775 5.162250e-03 8.463100e-15 1 
    0.428050 5.459181e-03 8.938400e-15 1 
    0.428325 5.520197e-03 9.026700e-15 1 
    0.428600 5.557660e-03 9.076300e-15 1 
    0.428875 5.435120e-03 8.864800e-15 1 
    0.429150 5.544061e-03 9.030900e-15 1 
    0.429425 5.580551e-03 9.078700e-15 1 
    0.429700 5.230664e-03 8.498600e-15 1 
    0.429975 5.260286e-03 8.535800e-15 1 
    0.430250 5.788240e-03 9.380500e-15 1 
    0.430525 5.643467e-03 9.134200e-15 1 
    0.430800 5.794015e-03 9.365900e-15 1 
    0.431075 5.542560e-03 8.948000e-15 1 
    0.431350 5.564271e-03 8.971600e-15 1 
    0.431625 5.674950e-03 9.138400e-15 1 
    0.431900 5.744115e-03 9.238000e-15 1 
    0.432175 5.937709e-03 9.537200e-15 1 
    0.432450 5.890224e-03 9.448900e-15 1 
    0.432725 5.886108e-03 9.430300e-15 1 
    0.433000 6.199636e-03 9.920000e-15 1 
    0.433275 6.107768e-03 9.760600e-15 1 
    0.433550 5.644670e-03 9.009100e-15 1 
    0.433825 5.725985e-03 9.127300e-15 1 
    0.434100 5.592983e-03 8.904000e-15 1 
    0.434375 5.772966e-03 9.178900e-15 1 
    0.434650 5.478257e-03 8.699300e-15 1 
    0.434925 5.440928e-03 8.629100e-15 1 
    0.435200 5.647059e-03 8.944700e-15 1 
    0.435475 5.976330e-03 9.454300e-15 1 
    0.435750 5.967424e-03 9.428300e-15 1 
    0.436025 5.569945e-03 8.789200e-15 1 
    0.436300 5.492391e-03 8.655900e-15 1 
    0.436575 5.329494e-03 8.388600e-15 1 
    0.436850 5.492888e-03 8.634900e-15 1 
    0.437125 5.827951e-03 9.150100e-15 1 
    0.437400 5.900335e-03 9.252100e-15 1 
    0.437675 5.820341e-03 9.115200e-15 1 
    0.437950 5.973233e-03 9.342900e-15 1 
    0.438225 5.964607e-03 9.317700e-15 1 
    0.438500 5.901206e-03 9.207100e-15 1 
    0.438775 5.981898e-03 9.321300e-15 1 
    0.439050 5.800296e-03 9.027000e-15 1 
    0.439325 5.726309e-03 8.900700e-15 1 
    0.439600 5.505962e-03 8.547500e-15 1 
    0.439875 5.673320e-03 8.796300e-15 1 
    0.440150 6.122191e-03 9.480400e-15 1 
    0.440425 6.073526e-03 9.393300e-15 1 
    0.440700 5.974423e-03 9.228500e-15 1 
    0.440975 5.969241e-03 9.209000e-15 1 
    0.441250 6.006673e-03 9.255200e-15 1 
    0.441525 6.043469e-03 9.300300e-15 1 
    0.441800 5.911571e-03 9.086000e-15 1 
    0.442075 5.987854e-03 9.191800e-15 1 
    0.442350 6.186349e-03 9.484700e-15 1 
    0.442625 6.231071e-03 9.541400e-15 1 
    0.442900 6.178726e-03 9.449500e-15 1 
    0.443175 6.159559e-03 9.408500e-15 1 
    0.443450 5.870529e-03 8.955900e-15 1 
    0.443725 5.920736e-03 9.021300e-15 1 
    0.444000 6.050761e-03 9.208000e-15 1 
    0.444275 5.863511e-03 8.912000e-15 1 
    0.444550 5.836648e-03 8.860200e-15 1 
    0.444825 6.067398e-03 9.199100e-15 1 
    0.445100 5.953524e-03 9.015300e-15 1 
    0.445375 5.781632e-03 8.744200e-15 1 
    0.445650 5.872122e-03 8.870100e-15 1 
    0.445925 5.956127e-03 8.985900e-15 1 
    0.446200 5.717860e-03 8.615800e-15 1 
    0.446475 5.612216e-03 8.446200e-15 1 
    0.446750 5.559256e-03 8.356200e-15 1 
    0.447025 5.317779e-03 7.983400e-15 1 
    0.447300 5.171665e-03 7.754500e-15 1 
    0.447575 5.446659e-03 8.156800e-15 1 
    0.447850 5.545082e-03 8.294000e-15 1 
    0.448125 5.526524e-03 8.256100e-15 1 
    0.448400 5.747172e-03 8.575200e-15 1 
    0.448675 6.002103e-03 8.944600e-15 1 
    0.448950 6.164660e-03 9.175600e-15 1 
    0.449225 6.109791e-03 9.082800e-15 1 
    0.449500 6.026822e-03 8.948500e-15 1 
    0.449775 5.679099e-03 8.421900e-15 1 
    0.450050 5.549936e-03 8.220300e-15 1 
    0.450325 5.660617e-03 8.374000e-15 1 
    0.450600 5.704283e-03 8.428300e-15 1 
    0.450875 5.685837e-03 8.390800e-15 1 
    0.451150 5.270912e-03 7.769000e-15 1 
    0.451425 5.404366e-03 7.956000e-15 1 
    0.451700 5.471686e-03 8.045300e-15 1 
    0.451975 5.645181e-03 8.290300e-15 1 
    0.452250 5.551287e-03 8.142500e-15 1 
    0.452525 5.766914e-03 8.448500e-15 1 
    0.452800 5.996517e-03 8.774200e-15 1 
    0.453075 6.412578e-03 9.371600e-15 1 
    0.453350 6.528814e-03 9.529900e-15 1 
    0.453625 6.527821e-03 9.516900e-15 1 
    0.453900 6.537249e-03 9.519100e-15 1 
    0.454175 6.661305e-03 9.688000e-15 1 
    0.454450 6.528317e-03 9.483100e-15 1 
    0.454725 6.392857e-03 9.275100e-15 1 
    0.455000 6.421916e-03 9.306000e-15 1 
    0.455275 6.586243e-03 9.532600e-15 1 
    0.455550 6.184476e-03 8.940300e-15 1 
    0.455825 5.990333e-03 8.649200e-15 1 
    0.456100 6.080912e-03 8.769400e-15 1 
    0.456375 6.685589e-03 9.629800e-15 1 
    0.456650 6.570200e-03 9.452200e-15 1 
    0.456925 6.522441e-03 9.372200e-15 1 
    0.457200 6.510715e-03 9.344100e-15 1 
    0.457475 6.573730e-03 9.423200e-15 1 
    0.457750 6.276413e-03 8.986200e-15 1 
    0.458025 6.447800e-03 9.220500e-15 1 
    0.458300 6.720894e-03 9.599500e-15 1 
    0.458575 6.630406e-03 9.458900e-15 1 
    0.458850 6.617306e-03 9.428900e-15 1 
    0.459125 6.502487e-03 9.254200e-15 1 
    0.459400 6.691077e-03 9.511200e-15 1 
    0.459675 6.697963e-03 9.509600e-15 1 
    0.459950 6.727699e-03 9.540400e-15 1 
    0.460225 6.888177e-03 9.756300e-15 1 
    0.460500 6.797732e-03 9.616700e-15 1 
    0.460775 6.681934e-03 9.441600e-15 1 
    0.461050 6.847282e-03 9.663700e-15 1 
    0.461325 6.854034e-03 9.661700e-15 1 
    0.461600 7.086079e-03 9.976900e-15 1 
    0.461875 6.828006e-03 9.602100e-15 1 
    0.462150 6.941435e-03 9.750000e-15 1 
    0.462425 7.153557e-03 1.003600e-14 1 
    0.462700 7.239854e-03 1.014500e-14 1 
    0.462975 6.680088e-03 9.349500e-15 1 
    0.463250 6.977809e-03 9.754600e-15 1 
    0.463525 6.753980e-03 9.430500e-15 1 
    0.463800 7.018194e-03 9.787800e-15 1 
    0.464075 6.387959e-03 8.898300e-15 1 
    0.464350 6.485949e-03 9.024100e-15 1 
    0.464625 6.793198e-03 9.440400e-15 1 
    0.464900 7.086248e-03 9.836000e-15 1 
    0.465175 7.248269e-03 1.004900e-14 1 
    0.465450 7.577475e-03 1.049300e-14 1 
    0.465725 7.301569e-03 1.009900e-14 1 
    0.466000 6.984678e-03 9.649300e-15 1 
    0.466275 7.240340e-03 9.990700e-15 1 
    0.466550 7.338345e-03 1.011400e-14 1 
    0.466825 7.421819e-03 1.021700e-14 1 
    0.467100 7.227438e-03 9.937700e-15 1 
    0.467375 7.143405e-03 9.810600e-15 1 
    0.467650 7.493271e-03 1.027900e-14 1 
    0.467925 7.497708e-03 1.027300e-14 1 
    0.468200 7.542328e-03 1.032200e-14 1 
    0.468475 7.595084e-03 1.038200e-14 1 
    0.468750 7.947510e-03 1.085100e-14 1 
    0.469025 7.516135e-03 1.025000e-14 1 
    0.469300 7.600568e-03 1.035300e-14 1 
    0.469575 7.522014e-03 1.023400e-14 1 
    0.469850 7.603677e-03 1.033300e-14 1 
    0.470125 7.310007e-03 9.922300e-15 1 
    0.470400 6.719493e-03 9.110100e-15 1 
    0.470675 7.151666e-03 9.684700e-15 1 
    0.470950 6.706974e-03 9.071900e-15 1 
    0.471225 6.897188e-03 9.318300e-15 1 
    0.471500 6.738655e-03 9.093500e-15 1 
    0.471775 6.973467e-03 9.399400e-15 1 
    0.472050 7.165212e-03 9.646600e-15 1 
    0.472325 7.453467e-03 1.002300e-14 1 
    0.472600 7.122581e-03 9.566900e-15 1 
    0.472875 7.429617e-03 9.967700e-15 1 
    0.473150 7.427739e-03 9.953600e-15 1 
    0.473425 7.439289e-03 9.957500e-15 1 
    0.473700 7.814814e-03 1.044800e-14 1 
    0.473975 7.322242e-03 9.778100e-15 1 
    0.474250 7.749754e-03 1.033700e-14 1 
    0.474525 7.666423e-03 1.021400e-14 1 
    0.474800 7.674560e-03 1.021300e-14 1 
    0.475075 7.551797e-03 1.003800e-14 1 
    0.475350 7.613265e-03 1.010800e-14 1 
    0.475625 7.882983e-03 1.045400e-14 1 
    0.475900 7.518710e-03 9.959400e-15 1 
    0.476175 7.479484e-03 9.896000e-15 1 
    0.476450 7.453999e-03 9.850900e-15 1 
    0.476725 7.415789e-03 9.789100e-15 1 
    0.477000 7.401898e-03 9.759500e-15 1 
    0.477275 7.713777e-03 1.015900e-14 1 
    0.477550 7.347596e-03 9.665600e-15 1 
    0.477825 7.809954e-03 1.026200e-14 1 
    0.478100 7.494363e-03 9.836000e-15 1 
    0.478375 7.849303e-03 1.029000e-14 1 
    0.478650 7.879713e-03 1.031800e-14 1 
    0.478925 7.894887e-03 1.032600e-14 1 
    0.479200 7.604974e-03 9.935400e-15 1 
    0.479475 7.461743e-03 9.737100e-15 1 
    0.479750 8.070947e-03 1.052000e-14 1 
    0.480025 8.151633e-03 1.061300e-14 1 
    0.480300 7.687604e-03 9.997400e-15 1 
    0.480575 8.285030e-03 1.076200e-14 1 
    0.480850 8.271392e-03 1.073200e-14 1 
    0.481125 8.052462e-03 1.043600e-14 1 
    0.481400 7.909490e-03 1.023900e-14 1 
    0.481675 7.964157e-03 1.029800e-14 1 
    0.481950 7.508935e-03 9.698300e-15 1 
    0.482225 8.102502e-03 1.045300e-14 1 
    0.482500 7.893684e-03 1.017200e-14 1 
    0.482775 7.666505e-03 9.868000e-15 1 
    0.483050 7.736064e-03 9.946200e-15 1 
    0.483325 7.755077e-03 9.959300e-15 1 
    0.483600 7.865792e-03 1.009000e-14 1 
    0.483875 7.727236e-03 9.901000e-15 1 
    0.484150 8.093875e-03 1.035900e-14 1 
    0.484425 8.316619e-03 1.063200e-14 1 
    0.484700 7.857762e-03 1.003400e-14 1 
    0.484975 7.959194e-03 1.015200e-14 1 
    0.485250 7.247613e-03 9.233900e-15 1 
    0.485525 7.626012e-03 9.705000e-15 1 
    0.485800 7.861765e-03 9.993700e-15 1 
    0.486075 7.977226e-03 1.012900e-14 1 
    0.486350 8.272463e-03 1.049200e-14 1 
    0.486625 7.571252e-03 9.591800e-15 1 
    0.486900 8.351242e-03 1.056800e-14 1 
    0.487175 8.151820e-03 1.030400e-14 1 
    0.487450 8.168153e-03 1.031300e-14 1 
    0.487725 7.961699e-03 1.004100e-14 1 
    0.488000 8.492215e-03 1.069800e-14 1 
    0.488275 7.732909e-03 9.730500e-15 1 
    0.488550 8.082538e-03 1.015900e-14 1 
    0.488825 7.841299e-03 9.844700e-15 1 
    0.489100 8.149387e-03 1.022000e-14 1 
    0.489375 7.678381e-03 9.618500e-15 1 
    0.489650 8.117377e-03 1.015700e-14 1 
    0.489925 7.718532e-03 9.647100e-15 1 
    0.490200 7.880027e-03 9.837900e-15 1 
    0.490475 8.252206e-03 1.029100e-14 1 
    0.490750 8.330502e-03 1.037700e-14 1 
    0.491025 8.223306e-03 1.023200e-14 1 
    0.491300 8.151257e-03 1.013100e-14 1 
    0.491575 8.317455e-03 1.032600e-14 1 
    0.491850 7.872445e-03 9.762600e-15 1 
    0.492125 7.651575e-03 9.478100e-15 1 
    0.492400 8.346205e-03 1.032700e-14 1 
    0.492675 8.387084e-03 1.036600e-14 1 
    0.492950 8.402930e-03 1.037400e-14 1 
    0.493225 8.195797e-03 1.010700e-14 1 
    0.493500 8.330768e-03 1.026200e-14 1 
    0.493775 8.175075e-03 1.005900e-14 1 
    0.494050 8.145130e-03 1.001100e-14 1 
    0.494325 8.094251e-03 9.937400e-15 1 
    0.494600 7.998151e-03 9.808500e-15 1 
    0.494875 8.144354e-03 9.976700e-15 1 
    0.495150 7.814579e-03 9.562100e-15 1 
    0.495425 7.790045e-03 9.521500e-15 1 
    0.495700 7.999857e-03 9.767100e-15 1 
    0.495975 8.286623e-03 1.010600e-14 1 
    0.496250 8.418126e-03 1.025500e-14 1 
    0.496525 8.431568e-03 1.026000e-14 1 
    0.496800 8.359463e-03 1.016100e-14 1 
    0.497075 8.173277e-03 9.923700e-15 1 
    0.497350 8.242678e-03 9.996900e-15 1 
    0.497625 8.360011e-03 1.012800e-14 1 
    0.497900 7.627028e-03 9.229800e-15 1 
    0.498175 8.271370e-03 9.998500e-15 1 
    0.498450 8.206465e-03 9.909100e-15 1 
    0.498725 8.509766e-03 1.026400e-14 1 
    0.499000 8.662745e-03 1.043700e-14 1 
    0.499275 8.644044e-03 1.040300e-14 1 
    0.499550 8.302951e-03 9.981500e-15 1 
    0.499825 8.395786e-03 1.008200e-14 1 
    0.500100 8.467552e-03 1.015700e-14 1 
    0.500375 8.364199e-03 1.002200e-14 1 
    0.500650 8.444414e-03 1.010700e-14 1 
    0.500925 8.413544e-03 1.005900e-14 1 
    0.501200 8.379242e-03 1.000700e-14 1 
    0.501475 8.246356e-03 9.837500e-15 1 
    0.501750 8.145471e-03 9.706500e-15 1 
    0.502025 8.185065e-03 9.743000e-15 1 
    0.502300 8.247860e-03 9.807000e-15 1 
    0.502575 8.232982e-03 9.778600e-15 1 
    0.502850 8.111688e-03 9.624000e-15 1 
    0.503125 7.747274e-03 9.181600e-15 1 
    0.503400 8.195077e-03 9.701700e-15 1 
    0.503675 7.656320e-03 9.054000e-15 1 
    0.503950 7.691433e-03 9.085600e-15 1 
    0.504225 7.723898e-03 9.114000e-15 1 
    0.504500 7.630263e-03 8.993700e-15 1 
    0.504775 7.919881e-03 9.324900e-15 1 
    0.505050 8.094992e-03 9.520700e-15 1 
    0.505325 8.190629e-03 9.622700e-15 1 
    0.505600 8.486279e-03 9.959200e-15 1 
    0.505875 7.680357e-03 9.003600e-15 1 
    0.506150 7.180774e-03 8.408800e-15 1 
    0.506425 7.404523e-03 8.661400e-15 1 
    0.506700 7.760885e-03 9.068400e-15 1 
    0.506975 7.611841e-03 8.884600e-15 1 
    0.507250 8.038132e-03 9.372000e-15 1 
    0.507525 8.390120e-03 9.771800e-15 1 
    0.507800 8.095885e-03 9.418900e-15 1 
    0.508075 7.838772e-03 9.109900e-15 1 
    0.508350 8.235492e-03 9.560600e-15 1 
    0.508625 8.379877e-03 9.717700e-15 1 
    0.508900 8.327562e-03 9.646600e-15 1 
    0.509175 8.362059e-03 9.676100e-15 1 
    0.509450 8.553118e-03 9.886500e-15 1 
    0.509725 8.367922e-03 9.662000e-15 1 
    0.510000 8.777509e-03 1.012400e-14 1 
    0.510275 8.623717e-03 9.935900e-15 1 
    0.510550 8.663860e-03 9.971400e-15 1 
    0.510825 8.503149e-03 9.775900e-15 1 
    0.511100 8.475126e-03 9.733200e-15 1 
    0.511375 8.598352e-03 9.864100e-15 1 
    0.511650 8.541632e-03 9.788500e-15 1 
    0.511925 8.559901e-03 9.798900e-15 1 
    0.512200 8.833285e-03 1.010100e-14 1 
    0.512475 8.679154e-03 9.914100e-15 1 
    0.512750 8.692853e-03 9.919100e-15 1 
    0.513025 8.611728e-03 9.816000e-15 1 
    0.513300 8.580915e-03 9.770400e-15 1 
    0.513575 8.618247e-03 9.802400e-15 1 
    0.513850 8.947497e-03 1.016600e-14 1 
    0.514125 9.023158e-03 1.024100e-14 1 
    0.514400 8.866111e-03 1.005200e-14 1 
    0.514675 8.992145e-03 1.018400e-14 1 
    0.514950 8.997337e-03 1.017900e-14 1 
    0.515225 9.172417e-03 1.036600e-14 1 
    0.515500 9.222073e-03 1.041100e-14 1 
    0.515775 9.352512e-03 1.054700e-14 1 
    0.516050 8.753442e-03 9.860900e-15 1 
    0.516325 8.706079e-03 9.797100e-15 1 
    0.516600 8.706993e-03 9.787700e-15 1 
    0.516875 8.965882e-03 1.006800e-14 1 
    0.517150 8.945114e-03 1.003400e-14 1 
    0.517425 8.385617e-03 9.396400e-15 1 
    0.517700 8.690867e-03 9.728100e-15 1 
    0.517975 8.467846e-03 9.468400e-15 1 
    0.518250 8.536286e-03 9.534800e-15 1 
    0.518525 8.914414e-03 9.946600e-15 1 
    0.518800 8.695540e-03 9.692100e-15 1 
    0.519075 8.892201e-03 9.900800e-15 1 
    0.519350 8.691151e-03 9.666700e-15 1 
    0.519625 8.709087e-03 9.676400e-15 1 
    0.519900 8.980675e-03 9.967600e-15 1 
    0.520175 9.214220e-03 1.021600e-14 1 
    0.520450 9.388292e-03 1.039800e-14 1 
    0.520725 9.137907e-03 1.011000e-14 1 
    0.521000 8.876844e-03 9.810800e-15 1 
    0.521275 8.363686e-03 9.233900e-15 1 
    0.521550 8.742815e-03 9.642300e-15 1 
    0.521825 8.628775e-03 9.506500e-15 1 
    0.522100 8.697478e-03 9.572100e-15 1 
    0.522375 8.741299e-03 9.610200e-15 1 
    0.522650 8.946635e-03 9.825600e-15 1 
    0.522925 8.917678e-03 9.783500e-15 1 
    0.523200 8.729056e-03 9.566500e-15 1 
    0.523475 8.567152e-03 9.379200e-15 1 
    0.523750 8.582464e-03 9.386100e-15 1 
    0.524025 8.715599e-03 9.521700e-15 1 
    0.524300 8.895090e-03 9.707600e-15 1 
    0.524575 8.751424e-03 9.540800e-15 1 
    0.524850 8.974273e-03 9.773500e-15 1 
    0.525125 8.751309e-03 9.520700e-15 1 
    0.525400 9.061826e-03 9.848200e-15 1 
    0.525675 9.090290e-03 9.868800e-15 1 
    0.525950 8.991736e-03 9.751600e-15 1 
    0.526225 9.227841e-03 9.997200e-15 1 
    0.526500 9.255783e-03 1.001700e-14 1 
    0.526775 9.381076e-03 1.014200e-14 1 
    0.527050 9.035128e-03 9.757800e-15 1 
    0.527325 9.295009e-03 1.002800e-14 1 
    0.527600 9.108275e-03 9.816300e-15 1 
    0.527875 8.982069e-03 9.670200e-15 1 
    0.528150 8.988733e-03 9.667300e-15 1 
    0.528425 9.130732e-03 9.809800e-15 1 
    0.528700 8.950070e-03 9.605700e-15 1 
    0.528975 8.932427e-03 9.576800e-15 1 
    0.529250 9.327889e-03 9.990400e-15 1 
    0.529525 8.725666e-03 9.335700e-15 1 
    0.529800 8.917927e-03 9.531500e-15 1 
    0.530075 8.716640e-03 9.306700e-15 1 
    0.530350 8.806224e-03 9.392600e-15 1 
    0.530625 8.873360e-03 9.454400e-15 1 
    0.530900 9.188467e-03 9.780000e-15 1 
    0.531175 9.169867e-03 9.750100e-15 1 
    0.531450 8.985518e-03 9.544200e-15 1 
    0.531725 9.245413e-03 9.810100e-15 1 
    0.532000 9.049315e-03 9.592100e-15 1 
    0.532275 9.246322e-03 9.790800e-15 1 
    0.532550 9.003089e-03 9.523400e-15 1 
    0.532825 9.088192e-03 9.603500e-15 1 
    0.533100 9.055894e-03 9.559500e-15 1 
    0.533375 8.753913e-03 9.231200e-15 1 
    0.533650 9.204545e-03 9.696400e-15 1 
    0.533925 9.400093e-03 9.892200e-15 1 
    0.534200 9.195466e-03 9.666900e-15 1 
    0.534475 8.867567e-03 9.312600e-15 1 
    0.534750 8.890516e-03 9.327100e-15 1 
    0.535025 8.721328e-03 9.140200e-15 1 
    0.535300 9.137191e-03 9.566200e-15 1 
    0.535575 8.998285e-03 9.411100e-15 1 
    0.535850 9.451821e-03 9.875300e-15 1 
    0.536125 1.012233e-02 1.056500e-14 1 
    0.536400 9.920757e-03 1.034400e-14 1 
    0.536675 1.015367e-02 1.057600e-14 1 
    0.536950 1.094060e-02 1.138400e-14 1 
    0.537225 1.034381e-02 1.075200e-14 1 
    0.537500 9.124623e-03 9.475000e-15 1 
    0.537775 8.619567e-03 8.941400e-15 1 
    0.538050 8.463758e-03 8.770800e-15 1 
    0.538325 8.998774e-03 9.315700e-15 1 
    0.538600 8.531353e-03 8.822800e-15 1 
    0.538875 8.475310e-03 8.755900e-15 1 
    0.539150 8.355578e-03 8.623400e-15 1 
    0.539425 8.658866e-03 8.927300e-15 1 
    0.539700 9.215587e-03 9.491600e-15 1 
    0.539975 9.512569e-03 9.787500e-15 1 
    0.540250 9.754298e-03 1.002600e-14 1 
    0.540525 9.725956e-03 9.986700e-15 1 
    0.540800 9.589526e-03 9.836600e-15 1 
    0.541075 9.460805e-03 9.694700e-15 1 
    0.541350 8.983359e-03 9.196100e-15 1 
    0.541625 9.081374e-03 9.287000e-15 1 
    0.541900 9.648055e-03 9.856500e-15 1 
    0.542175 9.276788e-03 9.467600e-15 1 
    0.542450 9.296205e-03 9.477800e-15 1 
    0.542725 9.660371e-03 9.839100e-15 1 
    0.543000 1.000226e-02 1.017700e-14 1 
    0.543275 9.496772e-03 9.652900e-15 1 
    0.543550 9.550312e-03 9.697500e-15 1 
    0.543825 9.743932e-03 9.884100e-15 1 
    0.544100 9.459322e-03 9.585700e-15 1 
    0.544375 9.403296e-03 9.519300e-15 1 
    0.544650 9.621932e-03 9.730800e-15 1 
    0.544925 9.638679e-03 9.737900e-15 1 
    0.545200 9.734808e-03 9.825100e-15 1 
    0.545475 9.991493e-03 1.007400e-14 1 
    0.545750 1.007305e-02 1.014600e-14 1 
    0.546025 9.583717e-03 9.643400e-15 1 
    0.546300 9.465738e-03 9.515100e-15 1 
    0.546575 9.207894e-03 9.246600e-15 1 
    0.546850 9.352530e-03 9.382400e-15 1 
    0.547125 8.864127e-03 8.883500e-15 1 
    0.547400 9.128639e-03 9.139400e-15 1 
    0.547675 8.838865e-03 8.840400e-15 1 
    0.547950 8.679304e-03 8.672100e-15 1 
    0.548225 9.538677e-03 9.521200e-15 1 
    0.548500 9.665881e-03 9.638500e-15 1 
    0.548775 9.736811e-03 9.699500e-15 1 
    0.549050 9.527715e-03 9.481700e-15 1 
    0.549325 9.782893e-03 9.725900e-15 1 
    0.549600 1.011902e-02 1.005000e-14 1 
    0.549875 1.038212e-02 1.030100e-14 1 
    0.550150 1.026438e-02 1.017400e-14 1 
    0.550425 1.055741e-02 1.045400e-14 1 
    0.550700 1.086618e-02 1.074900e-14 1 
    0.550975 1.034275e-02 1.022100e-14 1 
    0.551250 9.992373e-03 9.864900e-15 1 
    0.551525 9.789622e-03 9.655100e-15 1 
    0.551800 9.866880e-03 9.721600e-15 1 
    0.552075 1.020833e-02 1.004800e-14 1 
    0.552350 1.036189e-02 1.018900e-14 1 
    0.552625 9.989451e-03 9.813000e-15 1 
    0.552900 1.022256e-02 1.003200e-14 1 
    0.553175 1.046121e-02 1.025600e-14 1 
    0.553450 9.814788e-03 9.612700e-15 1 
    0.553725 9.857147e-03 9.644600e-15 1 
    0.554000 1.039934e-02 1.016500e-14 1 
    0.554275 1.003363e-02 9.797800e-15 1 
    0.554550 9.577170e-03 9.342800e-15 1 
    0.554825 1.010414e-02 9.847100e-15 1 
    0.555100 1.045711e-02 1.018100e-14 1 
    0.555375 9.782630e-03 9.514900e-15 1 
    0.555650 9.891736e-03 9.611500e-15 1 
    0.555925 1.015887e-02 9.861300e-15 1 
    0.556200 9.666626e-03 9.374200e-15 1 
    0.556475 1.043879e-02 1.011300e-14 1 
    0.556750 1.037781e-02 1.004400e-14 1 
    0.557025 1.023552e-02 9.896500e-15 1 
    0.557300 1.023248e-02 9.883800e-15 1 
    0.557575 1.024517e-02 9.886300e-15 1 
    0.557850 1.033743e-02 9.965500e-15 1 
    0.558125 9.863447e-03 9.499200e-15 1 
    0.558400 1.012012e-02 9.736800e-15 1 
    0.558675 9.763043e-03 9.384000e-15 1 
    0.558950 1.013642e-02 9.733300e-15 1 
    0.559225 1.034269e-02 9.921600e-15 1 
    0.559500 1.025645e-02 9.829200e-15 1 
    0.559775 9.998832e-03 9.572900e-15 1 
    0.560050 1.009502e-02 9.655500e-15 1 
    0.560325 1.033936e-02 9.879500e-15 1 
    0.560600 9.547176e-03 9.113600e-15 1 
    0.560875 9.963927e-03 9.502100e-15 1 
    0.561150 1.017670e-02 9.695500e-15 1 
    0.561425 1.030456e-02 9.807700e-15 1 
    0.561700 1.032097e-02 9.813700e-15 1 
    0.561975 1.070826e-02 1.017200e-14 1 
    0.562250 1.004066e-02 9.528500e-15 1 
    0.562525 1.037936e-02 9.840300e-15 1 
    0.562800 1.017899e-02 9.640900e-15 1 
    0.563075 9.983379e-03 9.446400e-15 1 
    0.563350 1.082737e-02 1.023500e-14 1 
    0.563625 1.070982e-02 1.011400e-14 1 
    0.563900 1.103614e-02 1.041200e-14 1 
    0.564175 1.046888e-02 9.867200e-15 1 
    0.564450 1.031533e-02 9.713000e-15 1 
    0.564725 1.102062e-02 1.036700e-14 1 
    0.565000 1.010273e-02 9.494300e-15 1 
    0.565275 1.058675e-02 9.939500e-15 1 
    0.565550 1.073086e-02 1.006500e-14 1 
    0.565825 1.067833e-02 1.000600e-14 1 
    0.566100 1.074747e-02 1.006100e-14 1 
    0.566375 1.062254e-02 9.934400e-15 1 
    0.566650 1.067343e-02 9.972300e-15 1 
    0.566925 1.055030e-02 9.847700e-15 1 
    0.567200 1.107668e-02 1.032900e-14 1 
    0.567475 1.035695e-02 9.648500e-15 1 
    0.567750 1.053504e-02 9.804900e-15 1 
    0.568025 1.099277e-02 1.022100e-14 1 
    0.568300 1.073094e-02 9.967900e-15 1 
    0.568575 1.107441e-02 1.027700e-14 1 
    0.568850 1.070156e-02 9.921400e-15 1 
    0.569125 1.005482e-02 9.312800e-15 1 
    0.569400 9.782796e-03 9.052100e-15 1 
    0.569675 9.567674e-03 8.844500e-15 1 
    0.569950 1.057895e-02 9.769900e-15 1 
    0.570225 1.049909e-02 9.686800e-15 1 
    0.570500 1.076005e-02 9.918000e-15 1 
    0.570775 1.033604e-02 9.518000e-15 1 
    0.571050 1.039253e-02 9.560800e-15 1 
    0.571325 1.111325e-02 1.021400e-14 1 
    0.571600 1.112177e-02 1.021200e-14 1 
    0.571875 1.099076e-02 1.008200e-14 1 
    0.572150 1.059246e-02 9.707300e-15 1 
    0.572425 1.075633e-02 9.848000e-15 1 
    0.572700 1.087588e-02 9.947900e-15 1 
    0.572975 1.084912e-02 9.913900e-15 1 
    0.573250 1.066412e-02 9.735500e-15 1 
    0.573525 1.092818e-02 9.967000e-15 1 
    0.573800 1.078359e-02 9.825700e-15 1 
    0.574075 1.077338e-02 9.807000e-15 1 
    0.574350 1.063933e-02 9.675700e-15 1 
    0.574625 1.080152e-02 9.813800e-15 1 
    0.574900 1.119878e-02 1.016500e-14 1 
    0.575175 1.048168e-02 9.505000e-15 1 
    0.575450 1.099692e-02 9.962700e-15 1 
    0.575725 1.114918e-02 1.009100e-14 1 
    0.576000 1.151816e-02 1.041500e-14 1 
    0.576275 1.123138e-02 1.014600e-14 1 
    0.576550 1.119335e-02 1.010200e-14 1 
    0.576825 1.104654e-02 9.960000e-15 1 
    0.577100 1.132018e-02 1.019700e-14 1 
    0.577375 1.114095e-02 1.002600e-14 1 
    0.577650 1.098684e-02 9.877900e-15 1 
    0.577925 1.097137e-02 9.854600e-15 1 
    0.578200 1.089567e-02 9.777300e-15 1 
    0.578475 1.114340e-02 9.990100e-15 1 
    0.578750 1.146093e-02 1.026500e-14 1 
    0.579025 1.118125e-02 1.000500e-14 1 
    0.579300 1.104869e-02 9.877000e-15 1 
    0.579575 1.139621e-02 1.017800e-14 1 
    0.579850 1.104413e-02 9.854200e-15 1 
    0.580125 1.040149e-02 9.272000e-15 1 
    0.580400 1.134109e-02 1.010000e-14 1 
    0.580675 1.115268e-02 9.922800e-15 1 
    0.580950 1.078929e-02 9.590400e-15 1 
    0.581225 1.119566e-02 9.942200e-15 1 
    0.581500 1.080658e-02 9.587600e-15 1 
    0.581775 1.141407e-02 1.011700e-14 1 
    0.582050 1.079586e-02 9.560000e-15 1 
    0.582325 1.110323e-02 9.822900e-15 1 
    0.582600 1.088608e-02 9.621700e-15 1 
    0.582875 1.175625e-02 1.038100e-14 1 
    0.583150 1.133354e-02 9.998300e-15 1 
    0.583425 1.079610e-02 9.515200e-15 1 
    0.583700 1.127531e-02 9.928200e-15 1 
    0.583975 1.134028e-02 9.976000e-15 1 
    0.584250 1.079775e-02 9.489800e-15 1 
    0.584525 1.078810e-02 9.472400e-15 1 
    0.584800 1.109100e-02 9.729200e-15 1 
    0.585075 1.129484e-02 9.898700e-15 1 
    0.585350 1.127097e-02 9.868500e-15 1 
    0.585625 1.127790e-02 9.865300e-15 1 
    0.585900 1.134525e-02 9.914900e-15 1 
    0.586175 1.095206e-02 9.562300e-15 1 
    0.586450 1.089561e-02 9.504100e-15 1 
    0.586725 1.146787e-02 9.993900e-15 1 
    0.587000 1.121423e-02 9.763700e-15 1 
    0.587275 1.119358e-02 9.736600e-15 1 
    0.587550 1.124860e-02 9.775300e-15 1 
    0.587825 1.092258e-02 9.483100e-15 1 
    0.588100 1.122379e-02 9.735500e-15 1 
    0.588375 1.058450e-02 9.172400e-15 1 
    0.588650 1.046572e-02 9.061000e-15 1 
    0.588925 1.058360e-02 9.154500e-15 1 
    0.589200 1.148336e-02 9.923500e-15 1 
    0.589475 1.169620e-02 1.009800e-14 1 
    0.589750 1.111921e-02 9.590900e-15 1 
    0.590025 1.126477e-02 9.707400e-15 1 
    0.590300 1.145612e-02 9.863100e-15 1 
    0.590575 1.148633e-02 9.879900e-15 1 
    0.590850 1.099246e-02 9.446300e-15 1 
    0.591125 1.158927e-02 9.949900e-15 1 
    0.591400 1.098834e-02 9.425200e-15 1 
    0.591675 1.137746e-02 9.749900e-15 1 
    0.591950 1.110970e-02 9.511600e-15 1 
    0.592225 1.138109e-02 9.734900e-15 1 
    0.592500 1.162429e-02 9.933700e-15 1 
    0.592775 1.148282e-02 9.803700e-15 1 
    0.593050 1.105982e-02 9.433800e-15 1 
    0.593325 1.079279e-02 9.197500e-15 1 
    0.593600 1.050188e-02 8.941300e-15 1 
    0.593875 1.011108e-02 8.600600e-15 1 
    0.594150 1.152568e-02 9.794800e-15 1 
    0.594425 1.203362e-02 1.021700e-14 1 
    0.594700 1.204829e-02 1.022000e-14 1 
    0.594975 1.194026e-02 1.011900e-14 1 
    0.595250 1.183555e-02 1.002100e-14 1 
    0.595525 1.200727e-02 1.015700e-14 1 
    0.595800 1.207042e-02 1.020100e-14 1 
    0.596075 1.243214e-02 1.049700e-14 1 
    0.596350 1.226224e-02 1.034400e-14 1 
    0.596625 1.277308e-02 1.076500e-14 1 
    0.596900 1.248439e-02 1.051200e-14 1 
    0.597175 1.201446e-02 1.010700e-14 1 
    0.597450 1.164704e-02 9.788900e-15 1 
    0.597725 1.222715e-02 1.026700e-14 1 
    0.598000 1.185338e-02 9.944000e-15 1 
    0.598275 1.195616e-02 1.002100e-14 1 
    0.598550 1.229317e-02 1.029400e-14 1 
    0.598825 1.178260e-02 9.857400e-15 1 
    0.599100 1.208247e-02 1.009900e-14 1 
    0.599375 1.138836e-02 9.510100e-15 1 
    0.599650 1.158256e-02 9.663400e-15 1 
    0.599925 1.209657e-02 1.008300e-14 1 
    0.600200 1.182788e-02 9.850000e-15 1 
    0.600475 1.158356e-02 9.637700e-15 1 
    0.600750 1.156097e-02 9.610100e-15 1 
    0.601025 1.107438e-02 9.197200e-15 1 
    0.601300 1.074513e-02 8.915600e-15 1 
    0.601575 1.136403e-02 9.420500e-15 1 
    0.601850 1.122675e-02 9.298200e-15 1 
    0.602125 1.255526e-02 1.038900e-14 1 
    0.602400 1.191281e-02 9.848400e-15 1 
    0.602675 1.228401e-02 1.014600e-14 1 
    0.602950 1.249517e-02 1.031100e-14 1 
    0.603225 1.171016e-02 9.654400e-15 1 
    0.603500 1.204061e-02 9.917800e-15 1 
    0.603775 1.174391e-02 9.664600e-15 1 
    0.604050 1.141601e-02 9.386200e-15 1 
    0.604325 1.225153e-02 1.006400e-14 1 
    0.604600 1.213292e-02 9.957500e-15 1 
    0.604875 1.232385e-02 1.010500e-14 1 
    0.605150 1.217380e-02 9.972900e-15 1 
    0.605425 1.222042e-02 1.000200e-14 1 
    0.605700 1.226944e-02 1.003300e-14 1 
    0.605975 1.175829e-02 9.606300e-15 1 
    0.606250 1.193387e-02 9.740900e-15 1 
    0.606525 1.227100e-02 1.000700e-14 1 
    0.606800 1.263561e-02 1.029500e-14 1 
    0.607075 1.191662e-02 9.700400e-15 1 
    0.607350 1.224133e-02 9.955700e-15 1 
    0.607625 1.226399e-02 9.965100e-15 1 
    0.607900 1.166276e-02 9.468000e-15 1 
    0.608175 1.241430e-02 1.006900e-14 1 
    0.608450 1.199559e-02 9.720600e-15 1 
    0.608725 1.174359e-02 9.507800e-15 1 
    0.609000 1.214252e-02 9.821900e-15 1 
    0.609275 1.176705e-02 9.509600e-15 1 
    0.609550 1.220892e-02 9.857800e-15 1 
    0.609825 1.283628e-02 1.035500e-14 1 
    0.610100 1.273992e-02 1.026800e-14 1 
    0.610375 1.222163e-02 9.841400e-15 1 
    0.610650 1.242966e-02 9.999900e-15 1 
    0.610925 1.253677e-02 1.007700e-14 1 
    0.611200 1.152312e-02 9.253900e-15 1 
    0.611475 1.144426e-02 9.182300e-15 1 
    0.611750 1.119122e-02 8.971200e-15 1 
    0.612025 1.086266e-02 8.700000e-15 1 
    0.612300 1.101302e-02 8.812500e-15 1 
    0.612575 1.042727e-02 8.336300e-15 1 
    0.612850 1.105635e-02 8.831300e-15 1 
    0.613125 1.131626e-02 9.030800e-15 1 
    0.613400 1.173353e-02 9.355400e-15 1 
    0.613675 1.180544e-02 9.404300e-15 1 
    0.613950 1.209885e-02 9.629400e-15 1 
    0.614225 1.196230e-02 9.512200e-15 1 
    0.614500 1.249462e-02 9.926600e-15 1 
    0.614775 1.231444e-02 9.774700e-15 1 
    0.615050 1.171150e-02 9.287800e-15 1 
    0.615325 1.225583e-02 9.710800e-15 1 
    0.615600 1.264222e-02 1.000800e-14 1 
    0.615875 1.224526e-02 9.685100e-15 1 
    0.616150 1.217888e-02 9.624000e-15 1 
    0.616425 1.233224e-02 9.736500e-15 1 
    0.616700 1.240562e-02 9.785700e-15 1 
    0.616975 1.230858e-02 9.700500e-15 1 
    0.617250 1.226177e-02 9.655000e-15 1 
    0.617525 1.228770e-02 9.666800e-15 1 
    0.617800 1.222740e-02 9.610800e-15 1 
    0.618075 1.219054e-02 9.573300e-15 1 
    0.618350 1.220585e-02 9.576800e-15 1 
    0.618625 1.215292e-02 9.526800e-15 1 
    0.618900 1.199302e-02 9.393100e-15 1 
    0.619175 1.203269e-02 9.415800e-15 1 
    0.619450 1.238898e-02 9.686000e-15 1 
    0.619725 1.246233e-02 9.734700e-15 1 
    0.620000 1.262024e-02 9.849300e-15 1 
    0.620275 1.273403e-02 9.929300e-15 1 
    0.620550 1.279179e-02 9.965500e-15 1 
    0.620825 1.267774e-02 9.867900e-15 1 
    0.621100 1.241907e-02 9.658000e-15 1 
    0.621375 1.237614e-02 9.616100e-15 1 
    0.621650 1.241080e-02 9.634500e-15 1 
    0.621925 1.236854e-02 9.593200e-15 1 
    0.622200 1.214487e-02 9.411400e-15 1 
    0.622475 1.236859e-02 9.576300e-15 1 
    0.622750 1.285525e-02 9.944300e-15 1 
    0.623025 1.302148e-02 1.006400e-14 1 
    0.623300 1.308737e-02 1.010600e-14 1 
    0.623575 1.251435e-02 9.655000e-15 1 
    0.623850 1.190464e-02 9.176500e-15 1 
    0.624125 1.193968e-02 9.195400e-15 1 
    0.624400 1.185429e-02 9.121600e-15 1 
    0.624675 1.257779e-02 9.669800e-15 1 
    0.624950 1.327522e-02 1.019700e-14 1 
    0.625225 1.316963e-02 1.010700e-14 1 
    0.625500 1.332859e-02 1.022000e-14 1 
    0.625775 1.278007e-02 9.790800e-15 1 
    0.626050 1.233483e-02 9.441400e-15 1 
    0.626325 1.258967e-02 9.628000e-15 1 
    0.626600 1.345142e-02 1.027800e-14 1 
    0.626875 1.300712e-02 9.929800e-15 1 
    0.627150 1.296596e-02 9.889700e-15 1 
    0.627425 1.293836e-02 9.860000e-15 1 
    0.627700 1.307211e-02 9.953200e-15 1 
    0.627975 1.322527e-02 1.006100e-14 1 
    0.628250 1.320265e-02 1.003500e-14 1 
    0.628525 1.259399e-02 9.564000e-15 1 
    0.628800 1.362117e-02 1.033500e-14 1 
    0.629075 1.331518e-02 1.009400e-14 1 
    0.629350 1.340340e-02 1.015200e-14 1 
    0.629625 1.283514e-02 9.713100e-15 1 
    0.629900 1.323903e-02 1.001000e-14 1 
    0.630175 1.250056e-02 9.443400e-15 1 
    0.630450 1.310608e-02 9.892200e-15 1 
    0.630725 1.304008e-02 9.833800e-15 1 
    0.631000 1.276345e-02 9.616800e-15 1 
    0.631275 1.313018e-02 9.884500e-15 1 
    0.631550 1.348530e-02 1.014300e-14 1 
    0.631825 1.306245e-02 9.816400e-15 1 
    0.632100 1.312790e-02 9.857000e-15 1 
    0.632375 1.288632e-02 9.667200e-15 1 
    0.632650 1.330284e-02 9.971000e-15 1 
    0.632925 1.269843e-02 9.509700e-15 1 
    0.633200 1.240515e-02 9.282000e-15 1 
    0.633475 1.241018e-02 9.277700e-15 1 
    0.633750 1.289797e-02 9.634000e-15 1 
    0.634025 1.298661e-02 9.691800e-15 1 
    0.634300 1.282085e-02 9.559800e-15 1 
    0.634575 1.340634e-02 9.987700e-15 1 
    0.634850 1.288166e-02 9.588500e-15 1 
    0.635125 1.351201e-02 1.004900e-14 1 
    0.635400 1.343301e-02 9.981600e-15 1 
    0.635675 1.335399e-02 9.914300e-15 1 
    0.635950 1.349726e-02 1.001200e-14 1 
    0.636225 1.293401e-02 9.585900e-15 1 
    0.636500 1.301433e-02 9.637100e-15 1 
    0.636775 1.282960e-02 9.492100e-15 1 
    0.637050 1.307079e-02 9.662200e-15 1 
    0.637325 1.316968e-02 9.726900e-15 1 
    0.637600 1.249902e-02 9.223600e-15 1 
    0.637875 1.272233e-02 9.380300e-15 1 
    0.638150 1.325076e-02 9.761500e-15 1 
    0.638425 1.292919e-02 9.516400e-15 1 
    0.638700 1.310173e-02 9.635100e-15 1 
    0.638975 1.308444e-02 9.614100e-15 1 
    0.639250 1.340654e-02 9.842300e-15 1 
    0.639525 1.306335e-02 9.582100e-15 1 
    0.639800 1.294905e-02 9.490100e-15 1 
    0.640075 1.293424e-02 9.471100e-15 1 
    0.640350 1.275947e-02 9.335100e-15 1 
    0.640625 1.233212e-02 9.014700e-15 1 
    0.640900 1.231957e-02 8.997800e-15 1 
    0.641175 1.242936e-02 9.070200e-15 1 
    0.641450 1.241575e-02 9.052500e-15 1 
    0.641725 1.291151e-02 9.405900e-15 1 
    0.642000 1.287820e-02 9.373600e-15 1 
    0.642275 1.239655e-02 9.015300e-15 1 
    0.642550 1.290096e-02 9.374100e-15 1 
    0.642825 1.346683e-02 9.776900e-15 1 
    0.643100 1.313081e-02 9.524800e-15 1 
    0.643375 1.304174e-02 9.452100e-15 1 
    0.643650 1.244720e-02 9.013500e-15 1 
    0.643925 1.325865e-02 9.592900e-15 1 
    0.644200 1.339420e-02 9.682700e-15 1 
    0.644475 1.241711e-02 8.968700e-15 1 
    0.644750 1.274849e-02 9.200200e-15 1 
    0.645025 1.319803e-02 9.516500e-15 1 
    0.645300 1.334406e-02 9.613600e-15 1 
    0.645575 1.255150e-02 9.034900e-15 1 
    0.645850 1.317161e-02 9.473200e-15 1 
    0.646125 1.315625e-02 9.454100e-15 1 
    0.646400 1.306313e-02 9.379200e-15 1 
    0.646675 1.322493e-02 9.487300e-15 1 
    0.646950 1.220364e-02 8.747200e-15 1 
    0.647225 1.195429e-02 8.561200e-15 1 
    0.647500 1.280562e-02 9.163100e-15 1 
    0.647775 1.266125e-02 9.052100e-15 1 
    0.648050 1.330559e-02 9.504700e-15 1 
    0.648325 1.414535e-02 1.009600e-14 1 
    0.648600 1.360528e-02 9.702300e-15 1 
    0.648875 1.300785e-02 9.268400e-15 1 
    0.649150 1.272938e-02 9.062300e-15 1 
    0.649425 1.377543e-02 9.798700e-15 1 
    0.649700 1.338933e-02 9.516000e-15 1 
    0.649975 1.215721e-02 8.633000e-15 1 
    0.650250 1.158512e-02 8.219800e-15 1 
    0.650525 1.178310e-02 8.353200e-15 1 
    0.650800 1.274264e-02 9.025800e-15 1 
    0.651075 1.309974e-02 9.270900e-15 1 
    0.651350 1.335249e-02 9.441800e-15 1 
    0.651625 1.324276e-02 9.356300e-15 1 
    0.651900 1.341217e-02 9.468000e-15 1 
    0.652175 1.321677e-02 9.322200e-15 1 
    0.652450 1.260585e-02 8.883800e-15 1 
    0.652725 1.255456e-02 8.840200e-15 1 
    0.653000 1.324867e-02 9.321100e-15 1 
    0.653275 1.225309e-02 8.613400e-15 1 
    0.653550 1.274492e-02 8.951600e-15 1 
    0.653825 1.289116e-02 9.046700e-15 1 
    0.654100 1.337906e-02 9.381200e-15 1 
    0.654375 1.392328e-02 9.754600e-15 1 
    0.654650 1.371299e-02 9.599200e-15 1 
    0.654925 1.507249e-02 1.054200e-14 1 
    0.655200 1.404498e-02 9.815100e-15 1 
    0.655475 1.403515e-02 9.800000e-15 1 
    0.655750 1.261285e-02 8.799500e-15 1 
    0.656025 1.395170e-02 9.725400e-15 1 
    0.656300 1.387739e-02 9.665500e-15 1 
    0.656575 1.343782e-02 9.351500e-15 1 
    0.656850 1.310636e-02 9.113200e-15 1 
    0.657125 1.343587e-02 9.334500e-15 1 
    0.657400 1.279136e-02 8.879300e-15 1 
    0.657675 1.354646e-02 9.395600e-15 1 
    0.657950 1.314914e-02 9.112400e-15 1 
    0.658225 1.353158e-02 9.369600e-15 1 
    0.658500 1.414230e-02 9.784300e-15 1 
    0.658775 1.333302e-02 9.216700e-15 1 
    0.659050 1.335269e-02 9.222600e-15 1 
    0.659325 1.363307e-02 9.408400e-15 1 
    0.659600 1.340327e-02 9.242100e-15 1 
    0.659875 1.305231e-02 8.992600e-15 1 
    0.660150 1.395382e-02 9.605700e-15 1 
    0.660425 1.330524e-02 9.151600e-15 1 
    0.660700 1.285448e-02 8.834200e-15 1 
    0.660975 1.291601e-02 8.869100e-15 1 
    0.661250 1.309364e-02 8.983600e-15 1 
    0.661525 1.420674e-02 9.739200e-15 1 
    0.661800 1.350451e-02 9.250100e-15 1 
    0.662075 1.372935e-02 9.396300e-15 1 
    0.662350 1.436211e-02 9.821200e-15 1 
    0.662625 1.426340e-02 9.745600e-15 1 
    0.662900 1.349143e-02 9.210500e-15 1 
    0.663175 1.328507e-02 9.062100e-15 1 
    0.663450 1.364235e-02 9.298100e-15 1 
    0.663725 1.384309e-02 9.427100e-15 1 
    0.664000 1.403916e-02 9.552700e-15 1 
    0.664275 1.432790e-02 9.741100e-15 1 
    0.664550 1.417784e-02 9.631100e-15 1 
    0.664825 1.392541e-02 9.451800e-15 1 
    0.665100 1.287070e-02 8.728700e-15 1 
    0.665375 1.314137e-02 8.904900e-15 1 
    0.665650 1.414624e-02 9.577900e-15 1 
    0.665925 1.360494e-02 9.203800e-15 1 
    0.666200 1.341749e-02 9.069500e-15 1 
    0.666475 1.366592e-02 9.229800e-15 1 
    0.666750 1.308149e-02 8.827800e-15 1 
    0.667025 1.358274e-02 9.158500e-15 1 
    0.667300 1.362259e-02 9.177800e-15 1 
    0.667575 1.433097e-02 9.647100e-15 1 
    0.667850 1.400633e-02 9.420800e-15 1 
    0.668125 1.340914e-02 9.011700e-15 1 
    0.668400 1.354319e-02 9.094300e-15 1 
    0.668675 1.336416e-02 8.966700e-15 1 
    0.668950 1.423911e-02 9.545900e-15 1 
    0.669225 1.472451e-02 9.863200e-15 1 
    0.669500 1.437803e-02 9.623200e-15 1 
    0.669775 1.453758e-02 9.722000e-15 1 
    0.670050 1.432878e-02 9.574500e-15 1 
    0.670325 1.476801e-02 9.859900e-15 1 
    0.670600 1.464552e-02 9.770100e-15 1 
    0.670875 1.405894e-02 9.371100e-15 1 
    0.671150 1.394374e-02 9.286700e-15 1 
    0.671425 1.411190e-02 9.391000e-15 1 
    0.671700 1.412813e-02 9.394100e-15 1 
    0.671975 1.359061e-02 9.029300e-15 1 
    0.672250 1.354886e-02 8.994200e-15 1 
    0.672525 1.431422e-02 9.494500e-15 1 
    0.672800 1.404136e-02 9.305900e-15 1 
    0.673075 1.401886e-02 9.283400e-15 1 
    0.673350 1.367863e-02 9.050700e-15 1 
    0.673625 1.528451e-02 1.010500e-14 1 
    0.673900 1.477019e-02 9.757000e-15 1 
    0.674175 1.488602e-02 9.825500e-15 1 
    0.674450 1.430546e-02 9.434600e-15 1 
    0.674725 1.416128e-02 9.331900e-15 1 
    0.675000 1.402338e-02 9.233500e-15 1 
    0.675275 1.396929e-02 9.190400e-15 1 
    0.675550 1.324775e-02 8.708600e-15 1 
    0.675825 1.305925e-02 8.577700e-15 1 
    0.676100 1.381085e-02 9.064000e-15 1 
    0.676375 1.395735e-02 9.152700e-15 1 
    0.676650 1.456041e-02 9.540400e-15 1 
    0.676925 1.398281e-02 9.154500e-15 1 
    0.677200 1.443825e-02 9.445000e-15 1 
    0.677475 1.407974e-02 9.203000e-15 1 
    0.677750 1.385875e-02 9.051200e-15 1 
    0.678025 1.455544e-02 9.498500e-15 1 
    0.678300 1.417678e-02 9.243900e-15 1 
    0.678575 1.489079e-02 9.701600e-15 1 
    0.678850 1.505755e-02 9.802300e-15 1 
    0.679125 1.418177e-02 9.224700e-15 1 
    0.679400 1.426373e-02 9.270500e-15 1 
    0.679675 1.419166e-02 9.216200e-15 1 
    0.679950 1.544959e-02 1.002500e-14 1 
    0.680225 1.681782e-02 1.090400e-14 1 
    0.680500 1.719571e-02 1.114000e-14 1 
    0.680775 1.754176e-02 1.135500e-14 1 
    0.681050 1.750800e-02 1.132400e-14 1 
    0.681325 1.784245e-02 1.153100e-14 1 
    0.681600 2.079454e-02 1.342800e-14 1 
    0.681875 2.540506e-02 1.639200e-14 1 
    0.682150 3.022930e-02 1.948900e-14 1 
    0.682425 3.166321e-02 2.039700e-14 1 
    0.682700 2.714601e-02 1.747300e-14 1 
    0.682975 2.079922e-02 1.337700e-14 1 
    0.683912 1.338753e-02 8.586600e-15 0 
    0.685488 1.471112e-02 9.392200e-15 0 
    0.687068 1.457430e-02 9.262100e-15 0 
    0.688652 1.501528e-02 9.498500e-15 0 
    0.690240 1.440395e-02 9.069900e-15 0 
    0.691831 1.494251e-02 9.365800e-15 0 
    0.693426 1.460053e-02 9.109400e-15 0 
    0.695024 1.466614e-02 9.108300e-15 0 
    0.696626 1.466426e-02 9.065300e-15 0 
    0.698233 1.490068e-02 9.169100e-15 0 
    0.699842 1.493303e-02 9.146800e-15 0 
    0.701455 1.486253e-02 9.061800e-15 0 
    0.703072 1.520680e-02 9.229100e-15 0 
    0.704693 1.523992e-02 9.206700e-15 0 
    0.706318 1.527304e-02 9.184300e-15 0 
    0.707946 1.527102e-02 9.140900e-15 0 
    0.709578 1.537490e-02 9.160800e-15 0 
    0.711214 1.551518e-02 9.201900e-15 0 
    0.712853 1.533557e-02 9.053600e-15 0 
    0.714496 1.540430e-02 9.052400e-15 0 
    0.716143 1.512119e-02 8.845200e-15 0 
    0.717794 1.547127e-02 9.008400e-15 0 
    0.719449 1.554063e-02 9.007200e-15 0 
    0.721108 1.590063e-02 9.173500e-15 0 
    0.722770 1.582548e-02 9.088200e-15 0 
    0.724436 1.608045e-02 9.192200e-15 0 
    0.726106 1.535469e-02 8.737000e-15 0 
    0.727780 1.618758e-02 9.168600e-15 0 
    0.729457 1.611097e-02 9.083300e-15 0 
    0.731139 1.607185e-02 9.019600e-15 0 
    0.732825 1.655796e-02 9.249700e-15 0 
    0.734514 1.584705e-02 8.811900e-15 0 
    0.736207 1.632633e-02 9.036700e-15 0 
    0.737904 1.573376e-02 8.668700e-15 0 
    0.739605 1.576790e-02 8.647600e-15 0 
    0.741310 1.580204e-02 8.626500e-15 0 
    0.743019 1.601963e-02 8.705100e-15 0 
    0.744732 1.612852e-02 8.724000e-15 0 
    0.746449 1.583189e-02 8.524200e-15 0 
    0.748170 1.536294e-02 8.233700e-15 0 
    0.749894 1.564639e-02 8.347100e-15 0 
    0.751623 1.634382e-02 8.679100e-15 0 
    0.753356 1.637936e-02 8.658000e-15 0 
    0.755092 1.679722e-02 8.838100e-15 0 
    0.756833 1.648832e-02 8.635700e-15 0 
    0.758578 1.581656e-02 8.245800e-15 0 
    0.760326 1.667459e-02 8.653200e-15 0 
    0.762079 1.686521e-02 8.711900e-15 0 
    0.763836 1.753604e-02 9.016800e-15 0 
    0.765597 1.753356e-02 8.974100e-15 0 
    0.767361 1.777501e-02 9.055900e-15 0 
    0.769130 1.769083e-02 8.971600e-15 0 
    0.770904 1.752610e-02 8.847200e-15 0 
    0.772681 1.839189e-02 9.241600e-15 0 
    0.774462 1.780581e-02 8.906000e-15 0 
    0.776247 1.759956e-02 8.762400e-15 0 
    0.778037 1.842640e-02 9.131900e-15 0 
    0.779830 1.792153e-02 8.840900e-15 0 
    0.781628 1.859138e-02 9.129200e-15 0 
    0.783430 1.858882e-02 9.086000e-15 0 
    0.785236 1.884460e-02 9.168700e-15 0 
    0.787046 1.875545e-02 9.083400e-15 0 
    0.788860 1.888266e-02 9.103000e-15 0 
    0.790679 1.870685e-02 8.976800e-15 0 
    0.792501 1.836273e-02 8.771200e-15 0 
    0.794328 1.874447e-02 8.912400e-15 0 
    0.796159 1.835727e-02 8.688200e-15 0 
    0.797995 1.814444e-02 8.548000e-15 0 
    0.799834 1.847916e-02 8.665700e-15 0 
    0.801678 1.843378e-02 8.604700e-15 0 
    0.803526 1.838866e-02 8.544200e-15 0 
    0.805378 1.834358e-02 8.484100e-15 0 
    0.807235 1.842566e-02 8.482900e-15 0 
    0.809096 1.825388e-02 8.365200e-15 0 
    0.810961 1.867638e-02 8.519500e-15 0 
    0.812831 1.897690e-02 8.616800e-15 0 
    0.814704 1.858502e-02 8.400100e-15 0 
    0.816582 1.892751e-02 8.515600e-15 0 
    0.818465 1.936570e-02 8.672700e-15 0 
    0.820352 1.936268e-02 8.631500e-15 0 
    0.822243 1.913812e-02 8.492200e-15 0 
    0.824138 1.887257e-02 8.335900e-15 0 
    0.826038 1.856803e-02 8.163700e-15 0 
    0.827942 1.891033e-02 8.276000e-15 0 
    0.829851 1.943722e-02 8.467500e-15 0 
    0.831764 1.903551e-02 8.254400e-15 0 
    0.833681 1.974702e-02 8.523600e-15 0 
    0.835603 2.001856e-02 8.601100e-15 0 
    0.837529 1.987759e-02 8.501300e-15 0 
    0.839460 1.960198e-02 8.344900e-15 0 
    0.841395 1.996312e-02 8.459600e-15 0 
    0.843335 2.000621e-02 8.438900e-15 0 
    0.845279 2.042174e-02 8.574600e-15 0 
    0.847227 1.999988e-02 8.358900e-15 0 
    0.849180 1.853340e-02 7.710400e-15 0 
    0.851138 1.976454e-02 8.184800e-15 0 
    0.853100 1.949042e-02 8.034200e-15 0 
    0.855067 2.068954e-02 8.489300e-15 0 
    0.857038 2.092582e-02 8.546800e-15 0 
    0.859014 2.025894e-02 8.236400e-15 0 
    0.860994 1.993162e-02 8.066100e-15 0 
    0.862979 2.025226e-02 8.158200e-15 0 
    0.864968 2.091259e-02 8.385500e-15 0 
    0.866962 2.010642e-02 8.025200e-15 0 
    0.868960 2.134341e-02 8.479800e-15 0 
    0.870964 2.104726e-02 8.323700e-15 0 
    0.872971 2.065969e-02 8.132900e-15 0 
    0.874984 2.133311e-02 8.359400e-15 0 
    0.877001 2.172615e-02 8.474300e-15 0 
    0.879023 2.088893e-02 8.110300e-15 0 
    0.881049 1.994542e-02 7.708400e-15 0 
    0.883080 2.151656e-02 8.277400e-15 0 
    0.885116 2.141402e-02 8.200100e-15 0 
    0.887156 2.111670e-02 8.049100e-15 0 
    0.889201 1.843124e-02 6.993200e-15 0 
    0.891251 2.185171e-02 8.252900e-15 0 
    0.893305 2.164771e-02 8.138300e-15 0 
    0.895365 2.139627e-02 8.006800e-15 0 
    0.897429 2.209369e-02 8.229800e-15 0 
    0.899498 2.188741e-02 8.115500e-15 0 
    0.901571 1.778771e-02 6.565100e-15 0 
    0.903650 2.153031e-02 7.909900e-15 0 
    0.905733 2.207896e-02 8.074200e-15 0 
    0.907820 2.269344e-02 8.260800e-15 0 
    0.909913 2.191948e-02 7.942400e-15 0 
    0.912011 2.211855e-02 7.977700e-15 0 
    0.914113 2.310385e-02 8.294800e-15 0 
    0.916220 2.049316e-02 7.323700e-15 0 
    0.918333 2.267420e-02 8.065900e-15 0 
    0.920450 2.272266e-02 8.046000e-15 0 
    0.922571 2.062447e-02 7.269500e-15 0 
    0.924698 2.240331e-02 7.860200e-15 0 
    0.926830 2.276329e-02 7.949800e-15 0 
    0.928966 2.234393e-02 7.767500e-15 0 
    0.931108 2.244305e-02 7.766100e-15 0 
    0.933254 2.202956e-02 7.588000e-15 0 
    0.935406 1.954044e-02 6.699700e-15 0 
    0.937562 2.055213e-02 7.014200e-15 0 
    0.939723 2.381106e-02 8.089100e-15 0 
    0.941890 2.436162e-02 8.238100e-15 0 
    0.944061 2.385761e-02 8.030600e-15 0 
    0.946237 2.358032e-02 7.900800e-15 0 
    0.948418 2.261904e-02 7.543900e-15 0 
    0.950605 2.215117e-02 7.353900e-15 0 
    0.952796 2.345959e-02 7.752500e-15 0 
    0.954993 2.383664e-02 7.840900e-15 0 
    0.957194 2.405262e-02 7.875600e-15 0 
    0.959401 2.360955e-02 7.695000e-15 0 
    0.961612 2.317446e-02 7.518500e-15 0 
    0.963829 2.437422e-02 7.871400e-15 0 
    0.966051 2.311267e-02 7.429700e-15 0 
    0.968278 2.430943e-02 7.778500e-15 0 
    0.970510 2.447343e-02 7.795000e-15 0 
    0.972747 2.458197e-02 7.793600e-15 0 
    0.974990 2.463431e-02 7.774300e-15 0 
    0.977237 2.423579e-02 7.613400e-15 0 
    0.979490 2.496777e-02 7.807300e-15 0 
    0.981748 2.479129e-02 7.716500e-15 0 
    0.984011 2.536403e-02 7.858500e-15 0 
    0.986279 2.541786e-02 7.839000e-15 0 
    0.988553 2.494919e-02 7.659100e-15 0 
    0.990832 2.500218e-02 7.640100e-15 0 
    0.993116 2.398270e-02 7.294900e-15 0 
    0.995405 2.516612e-02 7.619700e-15 0 
    0.997700 2.586627e-02 7.795700e-15 0 
    1.000000 2.580200e-02 7.740600e-15 0 
    1.002305 2.567864e-02 7.668200e-15 0 
    1.004615 2.579209e-02 7.666700e-15 0 
    1.006931 2.614603e-02 7.736200e-15 0 
    1.009253 2.590143e-02 7.628600e-15 0 
    1.011580 2.577780e-02 7.557300e-15 0 
    1.013912 2.577274e-02 7.521100e-15 0 
    1.016249 2.600632e-02 7.554400e-15 0 
    1.018591 2.588182e-02 7.483700e-15 0 
    1.020939 2.617639e-02 7.534100e-15 0 
    1.023294 2.635279e-02 7.550000e-15 0 
    1.025652 2.628713e-02 7.496600e-15 0 
    1.028017 2.640356e-02 7.495200e-15 0 
    1.030386 2.639835e-02 7.459300e-15 0 
    1.032761 2.669866e-02 7.509500e-15 0 
    1.035142 2.681690e-02 7.508100e-15 0 
    1.037528 2.681150e-02 7.472100e-15 0 
    1.042318 2.680106e-02 7.400700e-15 0 
    1.047129 2.660607e-02 7.279500e-15 0 
    1.051962 2.753022e-02 7.463300e-15 0 
    1.056818 2.751916e-02 7.391900e-15 0 
    1.061696 2.789102e-02 7.423100e-15 0 
    1.069054 2.832695e-02 7.435700e-15 0 
    1.071520 2.832499e-02 7.401000e-15 0 
    1.091441 2.852115e-02 7.182700e-15 0 
    1.111732 2.845565e-02 6.907000e-15 0 
    1.132400 2.832495e-02 6.626600e-15 0 
    1.153453 2.845575e-02 6.416400e-15 0 
    1.174898 2.898487e-02 6.299300e-15 0 
    1.193988 2.979662e-02 6.270300e-15 0 
    1.216186 3.021128e-02 6.127600e-15 0 
    1.235947 3.014191e-02 5.919600e-15 0 
    1.258925 3.077279e-02 5.824900e-15 0 
    1.279381 3.127300e-02 5.731800e-15 0 
    1.300169 3.148951e-02 5.588400e-15 0 
    1.321295 3.185424e-02 5.473800e-15 0 
    1.339676 3.200126e-02 5.349200e-15 0 
    1.361444 3.252142e-02 5.263700e-15 0 
    1.383566 3.267122e-02 5.120200e-15 0 
    1.402813 3.289778e-02 5.015200e-15 0 
    1.422328 3.327863e-02 4.935000e-15 0 
    1.445439 3.320236e-02 4.767500e-15 0 
    1.465547 3.267133e-02 4.563400e-15 0 
    1.485935 3.320247e-02 4.511200e-15 0 
    1.506607 3.421140e-02 4.521600e-15 0 
    1.527566 3.405371e-02 4.378100e-15 0 
    1.548817 3.541319e-02 4.428800e-15 0 
    1.570363 3.648917e-02 4.439000e-15 0 
    1.588548 3.785900e-02 4.500800e-15 0 
    1.610645 3.865151e-02 4.469800e-15 0 
    1.633051 3.891920e-02 4.378100e-15 0 
    1.651962 3.838581e-02 4.219800e-15 0 
    1.674943 3.964359e-02 4.239300e-15 0 
    1.694338 4.047324e-02 4.229500e-15 0 
    1.713958 4.075405e-02 4.161900e-15 0 
    1.733803 4.160705e-02 4.152300e-15 0 
    1.757923 4.208877e-02 4.085900e-15 0 
    1.778279 4.238082e-02 4.020600e-15 0 
    1.798871 4.170260e-02 3.866200e-15 0 
    1.819702 4.160668e-02 3.769500e-15 0 
    1.840771 4.094137e-02 3.624800e-15 0 
    1.862087 4.037981e-02 3.493700e-15 0 
    1.879318 3.918925e-02 3.328800e-15 0 
    1.901077 3.918882e-02 3.253000e-15 0 
    1.923091 3.882946e-02 3.149800e-15 0 
    1.945360 3.803347e-02 3.015000e-15 0 
    1.963361 3.785914e-02 2.946400e-15 0 
    1.986094 3.812163e-02 2.899300e-15 0 
    2.004472 3.759824e-02 2.807300e-15 0 
    2.027683 3.699663e-02 2.699500e-15 0 
    2.046444 3.665837e-02 2.626000e-15 0 
    2.070141 3.640518e-02 2.548500e-15 0 
    2.089297 3.648985e-02 2.507800e-15 0 
    2.108628 3.598845e-02 2.428200e-15 0 
    2.128139 3.623785e-02 2.400400e-15 0 
    2.152783 3.623850e-02 2.345800e-15 0 
    2.172701 3.615530e-02 2.297700e-15 0 
    2.192805 3.623766e-02 2.260900e-15 0 
    2.213094 3.615545e-02 2.214600e-15 0 
    2.233572 3.607267e-02 2.169200e-15 0 
    2.254240 3.549496e-02 2.095500e-15 0 
    2.275097 3.565965e-02 2.066800e-15 0 
    2.296149 3.541404e-02 2.015100e-15 0 
    2.317393 3.499831e-02 1.955100e-15 0 
    2.338837 3.462792e-02 1.899100e-15 0 
    2.360479 3.417780e-02 1.840200e-15 0 
    2.382319 3.126413e-02 1.652600e-15 0 
    2.398834 3.133082e-02 1.633400e-15 0 
    2.421028 2.806622e-02 1.436500e-15 0 
    2.443431 2.681287e-02 1.347300e-15 0 
    2.460366 2.736541e-02 1.356200e-15 0 
    2.483133 2.560308e-02 1.245700e-15 0 
    2.506110 2.508048e-02 1.198000e-15 0 
    2.523480 2.495176e-02 1.175500e-15 0 
    2.546831 2.355409e-02 1.089400e-15 0 
    2.551730 1.954288e-02 9.004100e-16 2 
    2.561400 2.078714e-02 9.505200e-16 2 
    2.571080 2.011208e-02 9.127400e-16 2 
    2.580760 2.019854e-02 9.098000e-16 2 
    2.590430 2.100847e-02 9.392300e-16 2 
    2.600110 2.005974e-02 8.901500e-16 2 
    2.609790 1.993104e-02 8.778900e-16 2 
    2.619460 1.909552e-02 8.348900e-16 2 
    2.629140 1.971779e-02 8.557600e-16 2 
    2.638810 2.107379e-02 9.079200e-16 2 
    2.648490 2.171829e-02 9.288600e-16 2 
    2.658170 2.208578e-02 9.377100e-16 2 
    2.667840 2.186456e-02 9.216000e-16 2 
    2.677520 2.239368e-02 9.370900e-16 2 
    2.687200 2.215272e-02 9.203400e-16 2 
    2.696870 2.231389e-02 9.204000e-16 2 
    2.706550 2.244702e-02 9.192800e-16 2 
    2.716230 2.269911e-02 9.229900e-16 2 
    2.725900 2.180043e-02 8.801700e-16 2 
    2.735580 2.170235e-02 8.700200e-16 2 
    2.745250 2.166840e-02 8.625500e-16 2 
    2.754930 2.171674e-02 8.584100e-16 2 
    2.764610 2.001745e-02 7.857100e-16 2 
    2.774280 2.106491e-02 8.210700e-16 2 
    2.783960 2.219491e-02 8.591100e-16 2 
    2.793640 2.135967e-02 8.210600e-16 2 
    2.803310 2.134434e-02 8.148200e-16 2 
    2.812990 2.244128e-02 8.508100e-16 2 
    2.822660 2.309433e-02 8.695800e-16 2 
    2.832340 2.183629e-02 8.166000e-16 2 
    2.842020 2.071528e-02 7.694100e-16 2 
    2.851690 1.969658e-02 7.266200e-16 2 
    2.861370 2.149639e-02 7.876600e-16 2 
    2.871050 2.081449e-02 7.575400e-16 2 
    2.880720 2.131482e-02 7.705500e-16 2 
    2.890400 2.142406e-02 7.693200e-16 2 
    2.900070 2.163605e-02 7.717600e-16 2 
    2.909750 2.086605e-02 7.393500e-16 2 
    2.919430 2.038179e-02 7.174100e-16 2 
    2.929100 1.985898e-02 6.944000e-16 2 
    2.938780 1.917517e-02 6.660800e-16 2 
    2.948460 1.864970e-02 6.435800e-16 2 
    2.958130 1.800101e-02 6.171400e-16 2 
    2.967810 1.839852e-02 6.266600e-16 2 
    2.977480 1.864243e-02 6.308500e-16 2 
    2.987160 1.873172e-02 6.297700e-16 2 
    2.996840 1.814921e-02 6.062500e-16 2 
    3.006510 1.852896e-02 6.149600e-16 2 
    3.016190 1.854233e-02 6.114600e-16 2 
    3.025870 1.847658e-02 6.054000e-16 2 
    3.035540 1.785648e-02 5.813600e-16 2 
    3.045220 1.782001e-02 5.764900e-16 2 
    3.054890 1.815174e-02 5.835100e-16 2 
    3.064570 1.740480e-02 5.559700e-16 2 
    3.074250 1.703640e-02 5.407800e-16 2 
    3.083920 1.732286e-02 5.464300e-16 2 
    3.093600 1.727482e-02 5.415100e-16 2 
    3.103280 1.713592e-02 5.338100e-16 2 
    3.112950 1.767507e-02 5.471900e-16 2 
    3.122630 1.696773e-02 5.220400e-16 2 
    3.132300 1.833307e-02 5.605700e-16 2 
    3.141980 1.792071e-02 5.445900e-16 2 
    3.151660 1.812666e-02 5.474700e-16 2 
    3.161330 1.859918e-02 5.583100e-16 2 
    3.171010 1.889760e-02 5.638100e-16 2 
    3.180690 1.773844e-02 5.260100e-16 2 
    3.190360 1.739590e-02 5.127300e-16 2 
    3.200040 1.803924e-02 5.284800e-16 2 
    3.209710 1.848187e-02 5.381900e-16 2 
    3.219390 1.822869e-02 5.276300e-16 2 
    3.229070 1.715537e-02 4.935900e-16 2 
    3.238740 1.757016e-02 5.025100e-16 2 
    3.248420 1.855258e-02 5.274500e-16 2 
    3.258100 1.926131e-02 5.443500e-16 2 
    3.267770 1.895544e-02 5.325400e-16 2 
    3.277450 1.815523e-02 5.070500e-16 2 
    3.287120 1.844188e-02 5.120300e-16 2 
    3.296800 1.906621e-02 5.262600e-16 2 
    3.306480 2.033794e-02 5.580800e-16 2 
    3.316150 2.112788e-02 5.763800e-16 2 
    3.325830 2.146526e-02 5.821800e-16 2 
    3.335510 2.241035e-02 6.042900e-16 2 
    3.345180 2.282583e-02 6.119400e-16 2 
    3.354860 2.448432e-02 6.526200e-16 2 
    3.364530 2.730286e-02 7.235700e-16 2 
    3.374210 2.586207e-02 6.814600e-16 2 
    3.383890 2.701375e-02 7.077400e-16 2 
    3.393560 2.712921e-02 7.067200e-16 2 
    3.403240 2.802622e-02 7.259400e-16 2 
    3.412920 2.651517e-02 6.829100e-16 2 
    3.422590 2.722947e-02 6.973500e-16 2 
    3.432270 2.616169e-02 6.662300e-16 2 
    3.441940 2.658061e-02 6.731000e-16 2 
    3.451620 2.510173e-02 6.320900e-16 2 
    3.461300 2.539408e-02 6.358800e-16 2 
    3.470970 2.652407e-02 6.604800e-16 2 
    3.480650 2.439542e-02 6.041000e-16 2 
    3.490330 2.420684e-02 5.961100e-16 2 
    3.500000 2.472540e-02 6.055200e-16 2 
    3.509680 2.335753e-02 5.688700e-16 2 
    3.519350 2.383941e-02 5.774200e-16 2 
    3.529030 2.349582e-02 5.659800e-16 2 
    3.538710 2.257634e-02 5.408600e-16 2 
    3.548380 2.341381e-02 5.578700e-16 2 
    3.558060 2.358097e-02 5.588000e-16 2 
    3.567740 2.189433e-02 5.160200e-16 2 
    3.577410 2.094157e-02 4.909000e-16 2 
    3.587090 2.118372e-02 4.939000e-16 2 
    3.596760 2.101909e-02 4.874300e-16 2 
    3.606440 1.933273e-02 4.459200e-16 2 
    3.616120 1.994575e-02 4.576000e-16 2 
    3.625790 2.075502e-02 4.736300e-16 2 
    3.635470 2.111711e-02 4.793300e-16 2 
    3.645150 1.967601e-02 4.442500e-16 2 
    3.654820 1.902895e-02 4.273700e-16 2 
    3.664500 1.908691e-02 4.264100e-16 2 
    3.674170 1.997480e-02 4.439000e-16 2 
    3.683850 1.933968e-02 4.275300e-16 2 
    3.693530 1.980842e-02 4.356000e-16 2 
    3.703200 1.735422e-02 3.796400e-16 2 
    3.712880 1.782416e-02 3.878900e-16 2 
    3.722560 1.859855e-02 4.026400e-16 2 
    3.732230 1.894789e-02 4.080800e-16 2 
    3.741910 1.845963e-02 3.955100e-16 2 
    3.751580 1.933582e-02 4.121500e-16 2 
    3.761260 1.845345e-02 3.913200e-16 2 
    3.770940 1.864856e-02 3.934300e-16 2 
    3.780610 1.817643e-02 3.815100e-16 2 
    3.790290 1.824472e-02 3.809900e-16 2 
    3.799970 1.951920e-02 4.055300e-16 2 
    3.809640 2.000473e-02 4.135100e-16 2 
    3.819320 2.047800e-02 4.211500e-16 2 
    3.828990 2.043277e-02 4.181000e-16 2 
    3.838670 1.910492e-02 3.889600e-16 2 
    3.848350 1.883017e-02 3.814400e-16 2 
    3.858020 1.828042e-02 3.684500e-16 2 
    3.867700 1.840518e-02 3.691100e-16 2 
    3.877380 1.893141e-02 3.777700e-16 2 
    3.887050 1.919669e-02 3.811600e-16 2 
    3.896730 1.944578e-02 3.841900e-16 2 
    3.906400 1.977030e-02 3.886700e-16 2 
    3.916080 1.946712e-02 3.808200e-16 2 
    3.925760 1.857662e-02 3.616100e-16 2 
    3.935430 1.693054e-02 3.279500e-16 2 
    3.945110 1.903776e-02 3.669600e-16 2 
    3.954790 1.819339e-02 3.489700e-16 2 
    3.964460 1.694863e-02 3.235100e-16 2 
    3.974140 1.682617e-02 3.196100e-16 2 
    3.983810 1.763927e-02 3.334300e-16 2 
    3.993490 1.834334e-02 3.450600e-16 2 
    4.003170 1.861721e-02 3.485200e-16 2 
    4.012840 1.835675e-02 3.419900e-16 2 
    4.022520 1.812558e-02 3.360600e-16 2 
    4.032200 1.921500e-02 3.545500e-16 2 
    4.041870 1.796930e-02 3.299800e-16 2 
    4.051550 1.913722e-02 3.497500e-16 2 
    4.061220 1.871903e-02 3.404800e-16 2 
    4.070900 1.857194e-02 3.362000e-16 2 
    4.080580 1.888072e-02 3.401700e-16 2 
    4.090250 1.937072e-02 3.473500e-16 2 
    4.099930 1.958914e-02 3.496100e-16 2 
    4.109610 1.847420e-02 3.281600e-16 2 
    4.119280 1.862516e-02 3.292900e-16 2 
    4.128960 1.797063e-02 3.162300e-16 2 
    4.138630 1.900152e-02 3.328100e-16 2 
    4.148310 1.992053e-02 3.472800e-16 2 
    4.157990 1.941945e-02 3.369700e-16 2 
    4.167660 1.890948e-02 3.266000e-16 2 
    4.177340 1.906605e-02 3.277800e-16 2 
    4.187020 1.754925e-02 3.003100e-16 2 
    4.196690 1.748364e-02 2.978100e-16 2 
    4.206370 1.747415e-02 2.962800e-16 2 
    4.216040 1.929594e-02 3.256700e-16 2 
    4.225720 1.876859e-02 3.153200e-16 2 
    4.235400 1.881940e-02 3.147300e-16 2 
    4.245070 1.903037e-02 3.168100e-16 2 
    4.254750 1.937493e-02 3.210800e-16 2 
    4.264430 1.924496e-02 3.174800e-16 2 
    4.274100 1.901326e-02 3.122400e-16 2 
    4.283780 1.854590e-02 3.031900e-16 2 
    4.293450 1.920547e-02 3.125600e-16 2 
    4.303130 1.824658e-02 2.956200e-16 2 
    4.312810 1.929660e-02 3.112300e-16 2 
    4.322480 1.726449e-02 2.772100e-16 2 
    4.332160 1.617518e-02 2.585600e-16 2 
    4.341840 1.790020e-02 2.848600e-16 2 
    4.351510 1.738102e-02 2.753700e-16 2 
    4.361190 1.788956e-02 2.821700e-16 2 
    4.370860 1.866502e-02 2.931000e-16 2 
    4.380540 1.730092e-02 2.704800e-16 2 
    4.390220 1.665084e-02 2.591700e-16 2 
    4.399890 1.661327e-02 2.574500e-16 2 
    4.409570 1.655359e-02 2.554000e-16 2 
    4.419250 1.602222e-02 2.461200e-16 2 
    4.428920 1.510380e-02 2.310000e-16 2 
    4.438600 1.461498e-02 2.225500e-16 2 
    4.448270 1.617860e-02 2.452900e-16 2 
    4.457950 1.786611e-02 2.697000e-16 2 
    4.467630 1.725385e-02 2.593300e-16 2 
    4.477300 1.468653e-02 2.197900e-16 2 
    4.486980 1.474607e-02 2.197300e-16 2 
    4.496650 1.467220e-02 2.176900e-16 2 
    4.506330 1.544754e-02 2.282100e-16 2 
    4.516010 1.683757e-02 2.476800e-16 2 
    4.525680 1.613350e-02 2.363100e-16 2 
    4.535360 1.491700e-02 2.175600e-16 2 
    4.545040 1.452283e-02 2.109100e-16 2 
    4.554710 1.539446e-02 2.226200e-16 2 
    4.564390 1.615372e-02 2.326100e-16 2 
    4.574070 1.605982e-02 2.302800e-16 2 
    4.583740 1.508146e-02 2.153400e-16 2 
    4.593420 1.448129e-02 2.059000e-16 2 
    4.603090 1.611098e-02 2.281100e-16 2 
    4.612770 1.510500e-02 2.129700e-16 2 
    4.622450 1.325825e-02 1.861500e-16 2 
    4.632120 1.355481e-02 1.895200e-16 2 
    4.641800 1.557726e-02 2.168900e-16 2 
    4.651480 1.695706e-02 2.351200e-16 2 
    4.661150 1.662932e-02 2.296200e-16 2 
    4.670830 1.435463e-02 1.973900e-16 2 
    4.680500 1.397161e-02 1.913300e-16 2 
    4.690180 1.347071e-02 1.837100e-16 2 
    4.699860 1.331064e-02 1.807800e-16 2 
    4.709530 1.248863e-02 1.689200e-16 2 
    4.719210 1.253557e-02 1.688600e-16 2 
    4.728890 1.301715e-02 1.746300e-16 2 
    4.738560 1.317373e-02 1.760100e-16 2 
    4.748240 1.137660e-02 1.513800e-16 2 
    4.757910 1.177764e-02 1.560800e-16 2 
    4.767590 1.395465e-02 1.841800e-16 2 
    4.777270 1.575044e-02 2.070400e-16 2 
    4.786940 1.649178e-02 2.159100e-16 2 
    4.796620 1.606388e-02 2.094600e-16 2 
    4.806290 1.417134e-02 1.840400e-16 2 
    4.815970 1.295283e-02 1.675400e-16 2 
    4.825650 1.250506e-02 1.611000e-16 2 
    4.835320 1.374217e-02 1.763300e-16 2 
    4.845000 1.425265e-02 1.821500e-16 2 
    4.854680 1.455555e-02 1.852800e-16 2 
    4.864350 1.526666e-02 1.935600e-16 2 
    4.874030 1.821306e-02 2.300000e-16 2 
    4.883710 1.839122e-02 2.313300e-16 2 
    4.893380 1.806424e-02 2.263200e-16 2 
    4.903060 1.646660e-02 2.054900e-16 2 
    4.912730 1.599260e-02 1.987900e-16 2 
    4.922410 1.513656e-02 1.874100e-16 2 
    4.932090 1.325173e-02 1.634300e-16 2 
    4.941760 1.053847e-02 1.294600e-16 2 
    4.951440 1.008946e-02 1.234600e-16 2 
    4.961220 1.283194e-02 1.564000e-16 2 
    5.010832 1.308401e-02 1.563300e-16 0 
    5.060941 1.334188e-02 1.562700e-16 0 
    5.111550 1.360395e-02 1.562000e-16 0 
    5.162666 1.387117e-02 1.561300e-16 0 
    5.214292 1.414364e-02 1.560600e-16 0 
    5.217250 1.415969e-02 1.560600e-16 3 
    5.247490 1.483556e-02 1.616300e-16 3 
    5.277730 1.519552e-02 1.636600e-16 3 
    5.307970 1.651122e-02 1.758100e-16 3 
    5.338210 1.634368e-02 1.720600e-16 3 
    5.368460 1.756889e-02 1.828800e-16 3 
    5.398700 1.959969e-02 2.017400e-16 3 
    5.428940 2.360818e-02 2.403000e-16 3 
    5.459180 2.370999e-02 2.386700e-16 3 
    5.489420 1.911583e-02 1.903100e-16 3 
    5.519670 2.269672e-02 2.234900e-16 3 
    5.549910 2.494408e-02 2.429500e-16 3 
    5.580150 2.139289e-02 2.061100e-16 3 
    5.610390 1.801294e-02 1.716800e-16 3 
    5.640630 1.877504e-02 1.770300e-16 3 
    5.670880 1.840774e-02 1.717200e-16 3 
    5.701120 1.908779e-02 1.761800e-16 3 
    5.731360 2.330491e-02 2.128400e-16 3 
    5.761600 2.327263e-02 2.103200e-16 3 
    5.791840 2.312732e-02 2.068300e-16 3 
    5.822090 2.674791e-02 2.367300e-16 3 
    5.852330 3.058961e-02 2.679400e-16 3 
    5.882570 3.416515e-02 2.961900e-16 3 
    5.912810 3.492986e-02 2.997300e-16 3 
    5.943050 3.639239e-02 3.091100e-16 3 
    5.973300 3.435776e-02 2.888800e-16 3 
    6.003540 3.209584e-02 2.671500e-16 3 
    6.033780 3.038487e-02 2.503800e-16 3 
    6.064020 3.053943e-02 2.491500e-16 3 
    6.094260 3.216820e-02 2.598400e-16 3 
    6.124510 3.233205e-02 2.585900e-16 3 
    6.154750 3.172277e-02 2.512300e-16 3 
    6.184990 3.231451e-02 2.534200e-16 3 
    6.215230 3.670149e-02 2.850300e-16 3 
    6.245470 4.345126e-02 3.341900e-16 3 
    6.275720 4.758980e-02 3.625000e-16 3 
    6.305960 4.871891e-02 3.675500e-16 3 
    6.336200 5.276711e-02 3.943000e-16 3 
    6.366440 6.521527e-02 4.827000e-16 3 
    6.396680 8.942387e-02 6.556400e-16 3 
    6.426930 1.297596e-01 9.424400e-16 3 
    6.457170 1.544940e-01 1.111600e-15 3 
    6.487410 1.505293e-01 1.073000e-15 3 
    6.517650 1.273416e-01 8.993100e-16 3 
    6.547890 1.074558e-01 7.518800e-16 3 
    6.578140 9.220381e-02 6.392400e-16 3 
    6.608380 8.045159e-02 5.526700e-16 3 
    6.638620 7.137638e-02 4.858700e-16 3 
    6.668860 6.606419e-02 4.456400e-16 3 
    6.699100 6.134964e-02 4.101100e-16 3 
    6.729350 5.709577e-02 3.782500e-16 3 
    6.759590 5.695362e-02 3.739400e-16 3 
    6.789830 5.564793e-02 3.621200e-16 3 
    6.820070 5.387953e-02 3.475100e-16 3 
    6.850310 5.551904e-02 3.549300e-16 3 
    6.880560 5.797515e-02 3.673800e-16 3 
    6.910800 5.830757e-02 3.662600e-16 3 
    6.941040 5.799190e-02 3.611100e-16 3 
    6.971280 5.835089e-02 3.602000e-16 3 
    7.001520 5.929451e-02 3.628700e-16 3 
    7.031770 5.921958e-02 3.593000e-16 3 
    7.062010 5.920304e-02 3.561300e-16 3 
    7.092250 5.984025e-02 3.569000e-16 3 
    7.122490 6.487504e-02 3.836500e-16 3 
    7.152730 7.192119e-02 4.217300e-16 3 
    7.182980 7.796206e-02 4.533100e-16 3 
    7.213220 7.793829e-02 4.493800e-16 3 
    7.243460 9.280314e-02 5.306300e-16 3 
    7.273700 1.093987e-01 6.203300e-16 3 
    7.303940 9.037606e-02 5.082300e-16 3 
    7.334190 8.427691e-02 4.700300e-16 3 
    7.364430 8.366445e-02 4.627900e-16 3 
    7.394670 8.458263e-02 4.640500e-16 3 
    7.424910 8.665590e-02 4.715600e-16 3 
    7.455150 8.725943e-02 4.710000e-16 3 
    7.485400 9.116652e-02 4.881200e-16 3 
    7.515640 8.654042e-02 4.596300e-16 3 
    7.545880 9.854089e-02 5.191800e-16 3 
    7.576120 9.978572e-02 5.215500e-16 3 
    7.636600 1.161629e-01 5.975700e-16 3 
    7.697090 1.410411e-01 7.141900e-16 3 
    7.757570 1.717354e-01 8.561100e-16 3 
    7.818050 2.063883e-01 1.013000e-15 3 
    7.878540 2.377334e-01 1.149000e-15 3 
    7.939020 2.480574e-01 1.180700e-15 3 
    7.999510 2.381362e-01 1.116400e-15 3 
    8.059990 2.385241e-01 1.101500e-15 3 
    8.120470 2.368198e-01 1.077400e-15 3 
    8.180959 2.288048e-01 1.025600e-15 3 
    8.241440 2.073502e-01 9.158400e-16 3 
    8.301920 1.839203e-01 8.005600e-16 3 
    8.362409 1.653819e-01 7.094900e-16 3 
    8.422890 1.462320e-01 6.183600e-16 3 
    8.483370 1.362106e-01 5.678000e-16 3 
    8.543860 1.331305e-01 5.471300e-16 3 
    8.604340 1.322876e-01 5.360500e-16 3 
    8.664830 1.346822e-01 5.381600e-16 3 
    8.725310 1.342825e-01 5.291500e-16 3 
    8.785791 1.375142e-01 5.344500e-16 3 
    8.846280 1.463087e-01 5.608800e-16 3 
    8.906760 1.531394e-01 5.791200e-16 3 
    8.967241 1.485574e-01 5.542400e-16 3 
    9.027730 1.331708e-01 4.902000e-16 3 
    9.088210 1.115866e-01 4.053000e-16 3 
    9.148690 9.233063e-02 3.309400e-16 3 
    9.209180 7.699808e-02 2.723700e-16 3 
    9.269660 6.475428e-02 2.260800e-16 3 
    9.330150 5.967104e-02 2.056400e-16 3 
    9.390630 5.431836e-02 1.847900e-16 3 
    9.451110 4.967279e-02 1.668300e-16 3 
    9.511599 4.631488e-02 1.535800e-16 3 
    9.572080 4.332016e-02 1.418400e-16 3 
    9.632560 4.165173e-02 1.346700e-16 3 
    9.693050 4.023788e-02 1.284800e-16 3 
    9.753530 3.931144e-02 1.239700e-16 3 
    9.814009 3.746324e-02 1.166900e-16 3 
    9.874500 3.654515e-02 1.124400e-16 3 
    9.934980 3.644145e-02 1.107600e-16 3 
    9.995470 3.894136e-02 1.169300e-16 3 
   10.055950 4.205669e-02 1.247700e-16 3 
   10.116430 3.661120e-02 1.073200e-16 3 
   10.176920 3.322965e-02 9.625300e-17 3 
   10.237400 3.187904e-02 9.125300e-17 3 
   10.297880 3.243180e-02 9.174800e-17 3 
   10.358370 3.289726e-02 9.198100e-17 3 
   10.418850 3.298655e-02 9.116300e-17 3 
   10.479330 3.402879e-02 9.296100e-17 3 
   10.539820 3.435316e-02 9.277300e-17 3 
   10.600300 3.450134e-02 9.211300e-17 3 
   10.660791 3.528833e-02 9.314800e-17 3 
   10.721270 3.570403e-02 9.318500e-17 3 
   10.781750 3.728905e-02 9.623300e-17 3 
   10.842241 3.969021e-02 1.012900e-16 3 
   10.902720 4.479788e-02 1.130600e-16 3 
   10.963200 4.971932e-02 1.241000e-16 3 
   11.023690 5.152927e-02 1.272100e-16 3 
   11.084170 5.236653e-02 1.278700e-16 3 
   11.144651 5.503032e-02 1.329200e-16 3 
   11.205140 5.702716e-02 1.362600e-16 3 
   11.265620 5.712408e-02 1.350300e-16 3 
   11.326110 6.142511e-02 1.436500e-16 3 
   11.386590 7.268859e-02 1.681900e-16 3 
   11.447070 8.620820e-02 1.973700e-16 3 
   11.507560 9.854107e-02 2.232400e-16 3 
   11.568040 1.332352e-01 2.986900e-16 3 
   11.628520 2.119162e-01 4.701500e-16 3 
   11.689009 2.616111e-01 5.744100e-16 3 
   11.749490 2.444506e-01 5.312200e-16 3 
   11.809970 2.033319e-01 4.373500e-16 3 
   11.870459 1.700147e-01 3.619700e-16 3 
   11.930940 1.479273e-01 3.117600e-16 3 
   11.991430 1.350709e-01 2.818000e-16 3 
   12.051910 1.254124e-01 2.590300e-16 3 
   12.112390 1.173631e-01 2.399900e-16 3 
   12.172880 1.147004e-01 2.322200e-16 3 
   12.233360 1.175641e-01 2.356700e-16 3 
   12.293841 1.228504e-01 2.438500e-16 3 
   12.354330 1.307170e-01 2.569300e-16 3 
   12.414810 1.382164e-01 2.690300e-16 3 
   12.475291 1.421654e-01 2.740400e-16 3 
   12.535780 1.409074e-01 2.690000e-16 3 
   12.596260 1.395783e-01 2.639100e-16 3 
   12.656750 1.399449e-01 2.620800e-16 3 
   12.717230 1.492911e-01 2.769300e-16 3 
   12.777710 1.616045e-01 2.969400e-16 3 
   12.838200 1.646546e-01 2.997000e-16 3 
   12.898680 1.675073e-01 3.020400e-16 3 
   12.959160 1.730900e-01 3.092000e-16 3 
   13.019651 1.846826e-01 3.268500e-16 3 
   13.080130 1.974091e-01 3.461500e-16 3 
   13.140609 2.073719e-01 3.602800e-16 3 
   13.201100 2.201947e-01 3.790600e-16 3 
   13.261580 2.765724e-01 4.717800e-16 3 
   13.322059 3.390407e-01 5.731000e-16 3 
   13.382550 2.475239e-01 4.146300e-16 3 
   13.443030 1.572161e-01 2.609900e-16 3 
   13.503520 1.407765e-01 2.316100e-16 3 
   13.564000 1.379436e-01 2.249300e-16 3 
   13.624480 1.372089e-01 2.217500e-16 3 
   13.684970 1.366134e-01 2.188400e-16 3 
   13.745450 1.379810e-01 2.190900e-16 3 
   13.805930 1.383846e-01 2.178100e-16 3 
   13.866420 1.376451e-01 2.147600e-16 3 
   13.926900 1.364046e-01 2.109800e-16 3 
   13.987380 1.341093e-01 2.056400e-16 3 
   14.047870 1.369624e-01 2.082100e-16 3 
   14.108350 1.354837e-01 2.042000e-16 3 
   14.168841 1.332485e-01 1.991200e-16 3 
   14.229320 1.294953e-01 1.918700e-16 3 
   14.289800 1.232541e-01 1.810800e-16 3 
   14.350291 1.182180e-01 1.722200e-16 3 
   14.410770 1.133534e-01 1.637500e-16 3 
   14.471250 1.113331e-01 1.594900e-16 3 
   14.577409 1.262326e-01 1.782100e-16 3 
   14.662091 1.289216e-01 1.799100e-16 3 
   14.746770 1.340830e-01 1.849700e-16 3 
   14.831450 1.318438e-01 1.798100e-16 3 
   14.916120 1.306910e-01 1.762200e-16 3 
   15.000800 1.291713e-01 1.722100e-16 3 
   15.085480 1.282215e-01 1.690300e-16 3 
   15.170150 1.264814e-01 1.648800e-16 3 
   15.254830 1.287351e-01 1.659600e-16 3 
   15.339509 1.281996e-01 1.634500e-16 3 
   15.424180 1.268670e-01 1.599800e-16 3 
   15.508859 1.276785e-01 1.592500e-16 3 
   15.593541 1.296278e-01 1.599300e-16 3 
   15.678211 1.291139e-01 1.575800e-16 3 
   15.762891 1.285080e-01 1.551600e-16 3 
   15.847570 1.304366e-01 1.558100e-16 3 
   15.932239 1.304972e-01 1.542300e-16 3 
   16.016920 1.341970e-01 1.569300e-16 3 
   16.101600 1.426025e-01 1.650100e-16 3 
   16.186280 1.590139e-01 1.820800e-16 3 
   16.270950 1.467034e-01 1.662400e-16 3 
   16.355631 1.458179e-01 1.635300e-16 3 
   16.440309 1.455929e-01 1.616000e-16 3 
   16.524981 1.475515e-01 1.621000e-16 3 
   16.609659 1.480928e-01 1.610400e-16 3 
   16.694339 1.495045e-01 1.609300e-16 3 
   16.779011 1.514284e-01 1.613600e-16 3 
   16.863689 1.564302e-01 1.650200e-16 3 
   16.948370 1.709600e-01 1.785500e-16 3 
   17.033039 1.936484e-01 2.002400e-16 3 
   17.117720 1.977274e-01 2.024400e-16 3 
   17.202400 1.900908e-01 1.927100e-16 3 
   17.287069 1.897651e-01 1.905000e-16 3 
   17.371750 1.939224e-01 1.927800e-16 3 
   17.456430 1.942939e-01 1.912800e-16 3 
   17.541109 1.953425e-01 1.904600e-16 3 
   17.625780 2.217653e-01 2.141500e-16 3 
   17.710461 2.401384e-01 2.296800e-16 3 
   17.795139 2.225008e-01 2.107900e-16 3 
   17.879811 2.001245e-01 1.878000e-16 3 
   17.964491 2.020030e-01 1.877800e-16 3 
   18.049170 2.035318e-01 1.874300e-16 3 
   18.133841 1.982772e-01 1.808900e-16 3 
   18.218519 1.857393e-01 1.678800e-16 3 
   18.303200 1.799882e-01 1.611800e-16 3 
   18.387870 1.807331e-01 1.603600e-16 3 
   18.472550 1.821285e-01 1.601200e-16 3 
   18.557230 1.806454e-01 1.573700e-16 3 
   18.641898 1.765983e-01 1.524500e-16 3 
   18.726580 1.747345e-01 1.494800e-16 3 
   18.811261 1.743132e-01 1.477800e-16 3 
   18.895941 1.743388e-01 1.464800e-16 3 
   18.980609 1.750160e-01 1.457400e-16 3 
   19.065291 1.759996e-01 1.452600e-16 3 
   19.149969 1.812826e-01 1.483000e-16 3 
   19.234641 1.860709e-01 1.508800e-16 3 
   19.319320 1.912960e-01 1.537600e-16 3 
   19.404000 2.250055e-01 1.792800e-16 3 
   19.488670 2.503570e-01 1.977500e-16 3 
   19.573352 2.086195e-01 1.633600e-16 3 
   19.658030 2.053532e-01 1.594200e-16 3 
   19.742700 2.026696e-01 1.559900e-16 3 
   19.827380 2.068755e-01 1.578700e-16 3 
   19.912059 2.098358e-01 1.587700e-16 3 
   19.996731 2.086518e-01 1.565400e-16 3 
   20.081409 2.105705e-01 1.566500e-16 3 
   20.166091 2.200634e-01 1.623400e-16 3 
   20.250770 2.167755e-01 1.585800e-16 3 
   20.335439 2.217210e-01 1.608500e-16 3 
   20.420120 2.257676e-01 1.624300e-16 3 
   20.589470 2.276060e-01 1.610700e-16 3 
   20.758830 2.399413e-01 1.670400e-16 3 
   20.928181 2.502960e-01 1.714400e-16 3 
   21.097530 2.588438e-01 1.744600e-16 3 
   21.266889 2.692728e-01 1.786100e-16 3 
   21.436239 2.847292e-01 1.858900e-16 3 
   21.605600 2.890282e-01 1.857500e-16 3 
   21.774950 2.937350e-01 1.858500e-16 3 
   21.944300 3.057697e-01 1.904900e-16 3 
   22.113661 3.200108e-01 1.963200e-16 3 
   22.283011 3.202139e-01 1.934700e-16 3 
   22.452359 3.285779e-01 1.955400e-16 3 
   22.621719 3.470976e-01 2.034800e-16 3 
   22.791070 3.557596e-01 2.054700e-16 3 
   22.960430 3.639484e-01 2.071100e-16 3 
   23.129780 3.710311e-01 2.080600e-16 3 
   23.299130 3.866717e-01 2.136900e-16 3 
   23.468491 3.998224e-01 2.177800e-16 3 
   23.637841 4.148514e-01 2.227400e-16 3 
   23.807191 4.226496e-01 2.237100e-16 3 
   23.976548 4.300064e-01 2.244000e-16 3 
   24.145900 4.455279e-01 2.292500e-16 3 
   24.315259 4.617126e-01 2.342800e-16 3 
   24.484609 4.703846e-01 2.353900e-16 3 
   24.653959 4.910357e-01 2.423600e-16 3 
   24.823320 5.017899e-01 2.443000e-16 3 
   24.992670 5.120330e-01 2.459200e-16 3 
   25.162020 5.249680e-01 2.487500e-16 3 
   25.331381 5.417267e-01 2.532700e-16 3 
   25.500731 5.572312e-01 2.570700e-16 3 
   25.670089 5.680179e-01 2.586000e-16 3 
   25.839439 5.807006e-01 2.609200e-16 3 
   26.008789 6.029713e-01 2.674100e-16 3 
   26.178150 6.168345e-01 2.700300e-16 3 
   26.347500 6.328937e-01 2.735100e-16 3 
   26.516850 6.441965e-01 2.748500e-16 3 
   26.686209 6.638223e-01 2.796400e-16 3 
   26.855559 6.944156e-01 2.888500e-16 3 
   27.024919 7.215821e-01 2.964000e-16 3 
   27.194269 7.262414e-01 2.946100e-16 3 
   27.363622 7.375862e-01 2.955200e-16 3 
   27.532981 7.534914e-01 2.981900e-16 3 
   27.702328 7.705910e-01 3.012400e-16 3 
   27.871678 7.911241e-01 3.055200e-16 3 
   28.041041 8.033365e-01 3.065000e-16 3 
   28.210391 8.232026e-01 3.103200e-16 3 
   28.379750 8.327673e-01 3.101900e-16 3 
   28.549100 8.649865e-01 3.183800e-16 3 
   28.718450 8.952929e-01 3.256600e-16 3 
   28.887809 9.094998e-01 3.269600e-16 3 
   29.057159 9.308330e-01 3.307400e-16 3 
   29.226509 9.567200e-01 3.360100e-16 3 
   29.395869 9.784110e-01 3.396800e-16 3 
   29.565219 9.918728e-01 3.404200e-16 3 
   29.734578 1.019950e+00 3.460800e-16 3 
   29.903931 1.046744e+00 3.511600e-16 3 
   30.073281 1.057909e+00 3.509200e-16 3 
   30.242641 1.074005e+00 3.522800e-16 3 
   30.411991 1.088810e+00 3.531700e-16 3 
   30.581341 1.110665e+00 3.562800e-16 3 
   30.750700 1.152725e+00 3.657100e-16 3 
   30.920050 1.183972e+00 3.715200e-16 3 
   31.089409 1.183059e+00 3.672000e-16 3 
   31.258759 1.212138e+00 3.721600e-16 3 
   31.428109 1.232814e+00 3.744400e-16 3 
   31.597469 1.282278e+00 3.853000e-16 3 
   31.766822 1.294681e+00 3.848900e-16 3 
   31.936172 1.304816e+00 3.838000e-16 3 
   32.105531 1.321647e+00 3.846600e-16 3 
   32.274878 1.360140e+00 3.917200e-16 3 
   32.444241 1.396347e+00 3.979600e-16 3 
   32.613591 1.430782e+00 4.035500e-16 3 
   32.782941 1.439589e+00 4.018500e-16 3 
   32.952300 1.460980e+00 4.036400e-16 3 
   33.121650 1.505400e+00 4.116700e-16 3 
   33.291000 1.562320e+00 4.229000e-16 3 
   33.460363 1.577436e+00 4.226800e-16 3 
   33.629713 1.560457e+00 4.139300e-16 3 
   33.799069 1.630363e+00 4.281500e-16 3 
   33.968419 1.754973e+00 4.562900e-16 3 
   34.137772 1.688996e+00 4.347900e-16 3 
   34.307128 1.699715e+00 4.332400e-16 3 
   34.476478 1.755920e+00 4.431800e-16 3 
   34.645828 1.890005e+00 4.723700e-16 3 
   34.815191 1.981497e+00 4.904300e-16 3 
   34.984538 1.915350e+00 4.694800e-16 3 
